Timestamp [ms],CPU usage [MHZ],CPU capacity provisioned [MHZ]
1376510763,3692.610976518,11703.996756
1376511064,3706.2656394,11703.996756
1376511364,3686.75897814,11703.996756
1376511664,3706.2656394,11703.996756
1376511964,3696.51230877,11703.996756
1376512264,3682.857645888,11703.996756
1376512564,3686.75897814,11703.996756
1376512864,3696.51230877,11703.996756
1376513164,3708.216305526,11703.996756
1376513464,3686.75897814,11703.996756
1376513764,3700.413641022,11703.996756
1376514064,3686.75897814,11703.996756
1376514364,3702.364307148,11703.996756
1376514664,3690.660310392,11703.996756
1376514964,3696.51230877,11703.996756
1376515264,3710.166971652,11703.996756
1376515564,3702.364307148,11703.996756
1376515864,3686.75897814,11703.996756
1376516164,3706.2656394,11703.996756
1376516464,3739.426963542,11703.996756
1376516764,3688.709644266,11703.996756
1376517064,3772.588287684,11703.996756
1376517365,3653.597653998,11703.996756
1376517665,3663.350984628,11703.996756
1376517965,3663.350984628,11703.996756
1376518265,3731.624299038001,11703.996756
1376518565,3667.25231688,11703.996756
1376518865,3682.857645888,11703.996756
1376519165,3729.673632912,11703.996756
1376519465,3680.906979762,11703.996756
1376519765,3655.548320124,11703.996756
1376520065,3692.610976518,11703.996756
1376520365,3684.808312014,11703.996756
1376520665,3692.610976518,11703.996756
1376520965,3753.081626424,11703.996756
1376521265,3657.49898625,11703.996756
1376521565,3733.574965164,11703.996756
1376521865,3665.301650754,11703.996756
1376522165,3677.00564751,11703.996756
1376522465,3655.548320124,11703.996756
1376522765,3673.104315258001,11703.996756
1376523065,3719.920302282,11703.996756
1376523365,3657.49898625,11703.996756
1376523665,3731.624299038001,11703.996756
1376523965,3667.25231688,11703.996756
1376524265,3669.202983006,11703.996756
1376524565,3667.25231688,11703.996756
1376524865,3657.49898625,11703.996756
1376525165,3704.314973274,11703.996756
1376525465,3702.364307148,11703.996756
1376525765,3702.364307148,11703.996756
1376526065,3696.51230877,11703.996756
1376526365,3745.27896192,11703.996756
1376526665,3694.561642644,11703.996756
1376526965,3743.328295794,11703.996756
1376527265,3745.27896192,11703.996756
1376527565,3663.350984628,11703.996756
1376527865,3741.377629668,11703.996756
1376528165,3657.49898625,11703.996756
1376528465,3673.104315258001,11703.996756
1376528765,3749.180294172,11703.996756
1376529065,3669.202983006,11703.996756
1376529365,3665.301650754,11703.996756
1376529666,3684.808312014,11703.996756
1376529966,3663.350984628,11703.996756
1376530266,3684.808312014,11703.996756
1376530566,3686.75897814,11703.996756
1376530866,3758.933624802,11703.996756
1376531166,3704.314973274,11703.996756
1376531466,3749.180294172,11703.996756
1376531766,3657.49898625,11703.996756
1376532066,3678.956313636,11703.996756
1376532366,3698.462974896,11703.996756
1376532666,3737.476297416,11703.996756
1376532966,3747.229628046,11703.996756
1376533266,3673.104315258001,11703.996756
1376533566,3630.189660486,11703.996756
1376533866,3696.51230877,11703.996756
1376534166,3608.7323331,11703.996756
1376534466,3628.238994360001,11703.996756
1376534766,3634.090992738,11703.996756
1376535066,3585.3243395880004,11703.996756
1376535366,3637.99232499,11703.996756
1376535666,3653.597653998,11703.996756
1376535966,3626.288328234,11703.996756
1376536266,3665.301650754,11703.996756
1376536566,3585.3243395880004,11703.996756
1376536866,3628.238994360001,11703.996756
1376537166,3639.942991116001,11703.996756
1376537466,3655.548320124,11703.996756
1376537766,3583.373673462,11703.996756
1376538066,3641.893657242,11703.996756
1376538366,3653.597653998,11703.996756
1376538666,3575.5710089580007,11703.996756
1376538967,3606.781666974001,11703.996756
1376539267,3637.99232499,11703.996756
1376539567,3649.696321746,11703.996756
1376539867,3612.633665352,11703.996756
1376540167,3630.189660486,11703.996756
1376540466,3548.261683194,11703.996756
1376540766,3729.673632912,11703.996756
1376541066,3661.400318502,11703.996756
1376541366,3620.436329856,11703.996756
1376541666,3600.929668596,11703.996756
1376541966,3554.113681572,11703.996756
1376542267,3591.1763379660006,11703.996756
1376542567,3628.238994360001,11703.996756
1376542867,3667.25231688,11703.996756
1376543167,3600.929668596,11703.996756
1376543467,3616.534997604,11703.996756
1376543767,3552.1630154460004,11703.996756
1376544067,3608.7323331,11703.996756
1376544367,3608.7323331,11703.996756
1376544667,3657.49898625,11703.996756
1376544967,3612.633665352,11703.996756
1376545267,3630.189660486,11703.996756
1376545567,3591.1763379660006,11703.996756
1376545867,3561.916346076,11703.996756
1376546167,3634.090992738,11703.996756
1376546467,3618.48566373,11703.996756
1376546767,3616.534997604,11703.996756
1376547067,3598.9790024700005,11703.996756
1376547367,3579.4723412100006,11703.996756
1376547667,3571.669676706,11703.996756
1376547967,3620.436329856,11703.996756
1376548267,3667.25231688,11703.996756
1376548567,3637.99232499,11703.996756
1376548867,3669.202983006,11703.996756
1376549167,4043.730879198,11703.996756
1376549467,3924.740245512,11703.996756
1376549767,3756.982958676,11703.996756
1376550067,3661.400318502,11703.996756
1376550367,5465.7664850520005,11703.996756
1376550667,6435.247549674,11703.996756
1376550968,6290.89825635,11703.996756
1376551268,6304.552919232,11703.996756
1376551568,6382.579564272,11703.996756
1376551868,6526.928857596001,11703.996756
1376552168,6603.004836510001,11703.996756
1376552468,6365.023569138,11703.996756
1376552768,6439.148881926001,11703.996756
1376553068,4613.325387989999,11703.996756
1376553368,3636.041658864001,11703.996756
1376553668,3593.127004092,11703.996756
1376553968,3532.656354186,11703.996756
1376554268,3524.853689682,11703.996756
1376554568,3454.629709146,11703.996756
1376554868,3649.696321746,11703.996756
1376555168,4203.68550153,11703.996756
1376555468,4976.149287426001,11703.996756
1376555768,3994.964226048001,11703.996756
1376556068,3786.242950566,11703.996756
1376556368,3729.673632912,11703.996756
1376556668,4736.217353928001,11703.996756
1376556968,6062.670319608,11703.996756
1376557268,5930.025023040001,11703.996756
1376557568,5370.183844878001,11703.996756
1376557868,4921.530635898,11703.996756
1376558168,4092.497532348,11703.996756
1376558468,4223.19216279,11703.996756
1376558768,5450.161156044001,11703.996756
1376559068,3922.789579386,11703.996756
1376559368,4494.334754304,11703.996756
1376559668,4002.766890552,11703.996756
1376559968,3688.709644266,11703.996756
1376560268,3517.051025178,11703.996756
1376560568,3622.386995982,11703.996756
1376560868,5128.301245254001,11703.996756
1376561168,4301.2188078300005,11703.996756
1376561468,5580.855786486,11703.996756
1376561768,6917.062082796,11703.996756
1376562068,6489.866201202001,11703.996756
1376562368,3907.184250378,11703.996756
1376562668,3877.924258488,11703.996756
1376562968,3891.57892137,11703.996756
1376563269,4260.254819184,11703.996756
1376563569,6739.55146533,11703.996756
1376563869,6086.0783131200005,11703.996756
1376564169,6152.400961404001,11703.996756
1376564469,4548.9534058320005,11703.996756
1376564769,4141.264185498,11703.996756
1376565069,4203.68550153,11703.996756
1376565369,4273.909482066,11703.996756
1376565669,4683.549368526,11703.996756
1376565969,5110.7452501200005,11703.996756
1376566269,4028.12555019,11703.996756
1376566569,3957.901569654,11703.996756
1376566869,4357.788125484,11703.996756
1376567169,4784.984007078,11703.996756
1376567469,5235.587882184,11703.996756
1376567769,4254.402820806001,11703.996756
1376568069,4186.129506396,11703.996756
1376568369,4431.913438272,11703.996756
1376568669,7283.787314484,11703.996756
1376568969,6944.37140856,11703.996756
1376569269,4312.922804586,11703.996756
1376569569,4121.757524238001,11703.996756
1376569869,4418.25877539,11703.996756
1376570169,4387.048117374,11703.996756
1376570469,5707.649084676002,11703.996756
1376570769,4560.657402588,11703.996756
1376571069,6404.036891658,11703.996756
1376571369,7972.372456962002,11703.996756
1376571669,7539.324576990001,11703.996756
1376571969,4625.029384746001,11703.996756
1376572269,4580.164063848,11703.996756
1376572569,4123.708190364,11703.996756
1376572869,4139.313519372,11703.996756
1376573169,3977.408230914,11703.996756
1376573469,3624.337662108,11703.996756
1376573769,3758.933624802,11703.996756
1376574069,3782.3416183139993,11703.996756
1376574369,3864.269595606,11703.996756
1376574669,4349.98546098,11703.996756
1376574969,4223.19216279,11703.996756
1376575269,3913.036248756001,11703.996756
1376575569,3811.601610204,11703.996756
1376575869,4030.0762163160007,11703.996756
1376576169,4408.5054447600005,11703.996756
1376576469,5575.003788108001,11703.996756
1376576769,4433.864104398,11703.996756
1376577069,3944.246906772,11703.996756
1376577369,4689.401366904,11703.996756
1376577669,4474.8280930440005,11703.996756
1376577970,4513.841415564,11703.996756
1376578270,4309.021472334,11703.996756
1376578570,4580.164063848,11703.996756
1376578870,5001.507947063999,11703.996756
1376579170,5204.377224168001,11703.996756
1376579470,4712.809360416,11703.996756
1376579770,3684.808312014,11703.996756
1376580070,3747.229628046,11703.996756
1376580370,3877.924258488,11703.996756
1376580670,3696.51230877,11703.996756
1376580970,4082.744201718,11703.996756
1376581270,3838.910935968,11703.996756
1376581570,3795.996281196001,11703.996756
1376581870,3745.27896192,11703.996756
1376582170,4435.814770524,11703.996756
1376582470,4217.340164412,11703.996756
1376582770,3797.9469473220006,11703.996756
1376583070,3624.337662108,11703.996756
1376583370,3614.584331478,11703.996756
1376583670,4045.681545324,11703.996756
1376583970,3893.529587496,11703.996756
1376584270,4656.2400427620005,11703.996756
1376584570,3565.817678328,11703.996756
1376584870,3565.817678328,11703.996756
1376585170,3593.127004092,11703.996756
1376585470,3571.669676706,11703.996756
1376585770,3565.817678328,11703.996756
1376586070,3634.090992738,11703.996756
1376586370,3579.4723412100006,11703.996756
1376586670,3569.71901058,11703.996756
1376586970,3589.22567184,11703.996756
1376587270,3559.96567995,11703.996756
1376587571,3565.817678328,11703.996756
1376587871,3563.867012202,11703.996756
1376588171,3561.916346076,11703.996756
1376588471,3571.669676706,11703.996756
1376588771,3587.275005714,11703.996756
1376589071,3565.817678328,11703.996756
1376589371,3567.7683444540003,11703.996756
1376589670,3575.5710089580007,11703.996756
1376589970,3591.1763379660006,11703.996756
1376590270,3571.669676706,11703.996756
1376590570,3595.077670218,11703.996756
1376590870,3597.0283363440003,11703.996756
1376591170,3677.00564751,11703.996756
1376591470,3561.916346076,11703.996756
1376591771,3565.817678328,11703.996756
1376592071,3565.817678328,11703.996756
1376592371,3575.5710089580007,11703.996756
1376592671,3581.4230073360004,11703.996756
1376592971,3565.817678328,11703.996756
1376593271,3561.916346076,11703.996756
1376593571,3856.4669311020007,11703.996756
1376593871,3573.6203428320005,11703.996756
1376594171,3571.669676706,11703.996756
1376594471,3591.1763379660006,11703.996756
1376594771,3563.867012202,11703.996756
1376595071,3565.817678328,11703.996756
1376595371,3569.71901058,11703.996756
1376595671,3569.71901058,11703.996756
1376595971,3573.6203428320005,11703.996756
1376596271,3585.3243395880004,11703.996756
1376596571,3561.916346076,11703.996756
1376596871,3546.3110170680006,11703.996756
1376597171,3569.71901058,11703.996756
1376597471,3579.4723412100006,11703.996756
1376597771,3593.127004092,11703.996756
1376598071,3563.867012202,11703.996756
1376598371,3563.867012202,11703.996756
1376598671,3649.696321746,11703.996756
1376598971,3558.015013824,11703.996756
1376599271,3567.7683444540003,11703.996756
1376599571,3587.275005714,11703.996756
1376599871,3558.015013824,11703.996756
1376600171,3637.99232499,11703.996756
1376600471,3558.015013824,11703.996756
1376600771,3571.669676706,11703.996756
1376601072,3558.015013824,11703.996756
1376601372,3587.275005714,11703.996756
1376601672,3563.867012202,11703.996756
1376601972,3563.867012202,11703.996756
1376602272,3558.015013824,11703.996756
1376602572,3556.0643476980003,11703.996756
1376602872,3563.867012202,11703.996756
1376603172,3598.9790024700005,11703.996756
1376603472,3569.71901058,11703.996756
1376603772,3567.7683444540003,11703.996756
1376604072,3561.916346076,11703.996756
1376604372,3567.7683444540003,11703.996756
1376604672,3565.817678328,11703.996756
1376604972,3589.22567184,11703.996756
1376605272,3565.817678328,11703.996756
1376605572,3569.71901058,11703.996756
1376605872,3606.781666974001,11703.996756
1376606172,3589.22567184,11703.996756
1376606472,3569.71901058,11703.996756
1376606772,3597.0283363440003,11703.996756
1376607072,3636.041658864001,11703.996756
1376607372,3569.71901058,11703.996756
1376607672,3567.7683444540003,11703.996756
1376607972,3573.6203428320005,11703.996756
1376608272,3565.817678328,11703.996756
1376608572,3602.880334722001,11703.996756
1376608872,3571.669676706,11703.996756
1376609172,3567.7683444540003,11703.996756
1376609472,3567.7683444540003,11703.996756
1376609772,3565.817678328,11703.996756
1376610072,3563.867012202,11703.996756
1376610372,3589.22567184,11703.996756
1376610672,3569.71901058,11703.996756
1376610972,3565.817678328,11703.996756
1376611272,3567.7683444540003,11703.996756
1376611572,3575.5710089580007,11703.996756
1376611872,3571.669676706,11703.996756
1376612172,3593.127004092,11703.996756
1376612472,3567.7683444540003,11703.996756
1376612772,3565.817678328,11703.996756
1376613072,3571.669676706,11703.996756
1376613372,3569.71901058,11703.996756
1376613672,3567.7683444540003,11703.996756
1376613972,3587.275005714,11703.996756
1376614272,3587.275005714,11703.996756
1376614572,3567.7683444540003,11703.996756
1376614872,3567.7683444540003,11703.996756
1376615172,3575.5710089580007,11703.996756
1376615472,3571.669676706,11703.996756
1376615772,3585.3243395880004,11703.996756
1376616072,3567.7683444540003,11703.996756
1376616372,3567.7683444540003,11703.996756
1376616672,3567.7683444540003,11703.996756
1376616973,3571.669676706,11703.996756
1376617273,3563.867012202,11703.996756
1376617573,3579.4723412100006,11703.996756
1376617873,3577.521675084,11703.996756
1376618173,3567.7683444540003,11703.996756
1376618473,3565.817678328,11703.996756
1376618773,3571.669676706,11703.996756
1376619073,3565.817678328,11703.996756
1376619373,3593.127004092,11703.996756
1376619673,3499.495030044,11703.996756
1376619973,3526.8043558080008,11703.996756
1376620273,3505.347028422,11703.996756
1376620573,3520.9523574300006,11703.996756
1376620873,3520.9523574300006,11703.996756
1376621173,3519.001691304,11703.996756
1376621473,3505.347028422,11703.996756
1376621773,3499.495030044,11703.996756
1376622073,3530.70568806,11703.996756
1376622373,3544.3603509420004,11703.996756
1376622673,3528.755021934,11703.996756
1376622973,3583.373673462,11703.996756
1376623273,3573.6203428320005,11703.996756
1376623573,3561.916346076,11703.996756
1376623873,3563.867012202,11703.996756
1376624173,3563.867012202,11703.996756
1376624473,3561.916346076,11703.996756
1376624773,3589.22567184,11703.996756
1376625073,3567.7683444540003,11703.996756
1376625373,3565.817678328,11703.996756
1376625673,3567.7683444540003,11703.996756
1376625973,3577.521675084,11703.996756
1376626273,3569.71901058,11703.996756
1376626573,3589.22567184,11703.996756
1376626873,3565.817678328,11703.996756
1376627173,3565.817678328,11703.996756
1376627473,3567.7683444540003,11703.996756
1376627773,3563.867012202,11703.996756
1376628073,3575.5710089580007,11703.996756
1376628373,3577.521675084,11703.996756
1376628673,3575.5710089580007,11703.996756
1376628973,3567.7683444540003,11703.996756
1376629273,3569.71901058,11703.996756
1376629573,3573.6203428320005,11703.996756
1376629873,3581.4230073360004,11703.996756
1376630173,3579.4723412100006,11703.996756
1376630474,3565.817678328,11703.996756
1376630774,3573.6203428320005,11703.996756
1376631074,3565.817678328,11703.996756
1376631374,3559.96567995,11703.996756
1376631674,3577.521675084,11703.996756
1376631974,3581.4230073360004,11703.996756
1376632274,3565.817678328,11703.996756
1376632574,3565.817678328,11703.996756
1376632874,3567.7683444540003,11703.996756
1376633174,3577.521675084,11703.996756
1376633474,3575.5710089580007,11703.996756
1376633774,3573.6203428320005,11703.996756
1376634074,3565.817678328,11703.996756
1376634374,3565.817678328,11703.996756
1376634674,3565.817678328,11703.996756
1376634974,3558.015013824,11703.996756
1376635274,3700.413641022,11703.996756
1376635574,3620.436329856,11703.996756
1376635874,3583.373673462,11703.996756
1376636174,3567.7683444540003,11703.996756
1376636474,3675.054981384,11703.996756
1376636774,3768.686955432001,11703.996756
1376637074,3655.548320124,11703.996756
1376637374,3577.521675084,11703.996756
1376637674,3723.821634534,11703.996756
1376637974,3916.937581008001,11703.996756
1376638274,3838.910935968,11703.996756
1376638574,4207.586833782,11703.996756
1376638874,4437.76543665,11703.996756
1376639174,4211.488166034001,11703.996756
1376639474,4039.829546946,11703.996756
1376639774,4143.214851624,11703.996756
1376640074,4919.579969772,11703.996756
1376640374,3534.607020312,11703.996756
1376640674,3550.2123493200006,11703.996756
1376640974,3733.574965164,11703.996756
1376641275,3538.5083525640007,11703.996756
1376641575,3534.607020312,11703.996756
1376641875,3567.7683444540003,11703.996756
1376642175,4617.226720242001,11703.996756
1376642475,4859.109319866001,11703.996756
1376642775,3868.170927858,11703.996756
1376643075,4004.717556678,11703.996756
1376643375,4357.788125484,11703.996756
1376643675,4705.006695912,11703.996756
1376643975,4330.47879972,11703.996756
1376644275,4110.053527482,11703.996756
1376644575,4937.135964906,11703.996756
1376644875,4880.566647252001,11703.996756
1376645175,3856.4669311020007,11703.996756
1376645475,3766.736289306001,11703.996756
1376645775,3756.982958676,11703.996756
1376646075,3753.081626424,11703.996756
1376646375,3819.404274708,11703.996756
1376646675,4312.922804586,11703.996756
1376646975,5179.018564530001,11703.996756
1376647275,5822.73838611,11703.996756
1376647575,5104.893251742,11703.996756
1376647875,3883.776256866001,11703.996756
1376648175,4215.389498286,11703.996756
1376648475,4443.617435028001,11703.996756
1376648775,4506.03875106,11703.996756
1376649075,4420.209441516,11703.996756
1376649375,4652.33871051,11703.996756
1376649675,4470.926760792001,11703.996756
1376649975,4515.7920816900005,11703.996756
1376650276,4626.980050872,11703.996756
1376650576,4279.761480444,11703.996756
1376650876,4014.470887308,11703.996756
1376651176,3702.364307148,11703.996756
1376651476,3727.722966786,11703.996756
1376651776,4486.532089800001,11703.996756
1376652076,4004.717556678,11703.996756
1376652376,3907.184250378,11703.996756
1376652676,5085.386590482,11703.996756
1376652976,3653.597653998,11703.996756
1376653276,3671.153649132,11703.996756
1376653576,3682.857645888,11703.996756
1376653876,4016.421553434,11703.996756
1376654176,3895.480253622,11703.996756
1376654476,3924.740245512,11703.996756
1376654776,3805.749611826,11703.996756
1376655076,4072.990871088,11703.996756
1376655376,4207.586833782,11703.996756
1376655676,4106.152195230001,11703.996756
1376655976,4291.465477199999,11703.996756
1376656276,4094.448198474,11703.996756
1376656576,4277.810814318,11703.996756
1376656876,4205.636167656001,11703.996756
1376657176,5978.79167619,11703.996756
1376657476,4349.98546098,11703.996756
1376657776,4229.044161168,11703.996756
1376658076,4234.8961595460005,11703.996756
1376658376,4074.941537214,11703.996756
1376658676,3989.11222767,11703.996756
1376658976,4238.797491798,11703.996756
1376659276,4328.528133594,11703.996756
1376659576,4995.655948686,11703.996756
1376659876,4839.602658606001,11703.996756
1376660176,4022.273551812,11703.996756
1376660476,3786.242950566,11703.996756
1376660776,3797.9469473220006,11703.996756
1376661076,3714.068303904,11703.996756
1376661376,3725.77230066,11703.996756
1376661676,4176.376175766,11703.996756
1376661976,4408.5054447600005,11703.996756
1376662276,4199.784169278,11703.996756
1376662576,4219.290830538,11703.996756
1376662876,5126.350579128,11703.996756
1376663176,5106.843917868,11703.996756
1376663476,3979.35889704,11703.996756
1376663777,3745.27896192,11703.996756
1376664077,3741.377629668,11703.996756
1376664377,3669.202983006,11703.996756
1376664677,4156.869514506,11703.996756
1376664977,4993.70528256,11703.996756
1376665277,4839.602658606001,11703.996756
1376665577,5662.783763778,11703.996756
1376665877,4207.586833782,11703.996756
1376666177,4178.326841892001,11703.996756
1376666477,4958.593292292,11703.996756
1376666777,6128.992967892001,11703.996756
1376667077,4496.28542043,11703.996756
1376667377,5251.193211192,11703.996756
1376667677,5389.690506137999,11703.996756
1376667977,4188.080172522,11703.996756
1376668277,3751.130960298,11703.996756
1376668577,3589.22567184,11703.996756
1376668877,3595.077670218,11703.996756
1376669177,3620.436329856,11703.996756
1376669477,3909.134916504,11703.996756
1376669777,5143.9065742620005,11703.996756
1376670077,3530.70568806,11703.996756
1376670377,3563.867012202,11703.996756
1376670677,3573.6203428320005,11703.996756
1376670977,3630.189660486,11703.996756
1376671277,3571.669676706,11703.996756
1376671577,3569.71901058,11703.996756
1376671878,3632.140326612001,11703.996756
1376672178,3565.817678328,11703.996756
1376672478,3579.4723412100006,11703.996756
1376672778,3579.4723412100006,11703.996756
1376673078,3665.301650754,11703.996756
1376673378,3577.521675084,11703.996756
1376673678,3569.71901058,11703.996756
1376673978,3563.867012202,11703.996756
1376674278,3573.6203428320005,11703.996756
1376674578,3563.867012202,11703.996756
1376674878,3573.6203428320005,11703.996756
1376675178,3587.275005714,11703.996756
1376675478,3653.597653998,11703.996756
1376675778,3567.7683444540003,11703.996756
1376676078,3581.4230073360004,11703.996756
1376676378,3593.127004092,11703.996756
1376676678,3661.400318502,11703.996756
1376676978,3595.077670218,11703.996756
1376677278,3632.140326612001,11703.996756
1376677578,3565.817678328,11703.996756
1376677878,3579.4723412100006,11703.996756
1376678178,3565.817678328,11703.996756
1376678478,3573.6203428320005,11703.996756
1376678778,3645.794989494,11703.996756
1376679078,3659.449652376,11703.996756
1376679378,3567.7683444540003,11703.996756
1376679679,3667.25231688,11703.996756
1376679979,3659.449652376,11703.996756
1376680279,3579.4723412100006,11703.996756
1376680579,3645.794989494,11703.996756
1376680879,3579.4723412100006,11703.996756
1376681179,3649.696321746,11703.996756
1376681479,3589.22567184,11703.996756
1376681779,3567.7683444540003,11703.996756
1376682079,3571.669676706,11703.996756
1376682379,3571.669676706,11703.996756
1376682679,3577.521675084,11703.996756
1376682979,3565.817678328,11703.996756
1376683279,3542.409684816,11703.996756
1376683579,3649.696321746,11703.996756
1376683879,3577.521675084,11703.996756
1376684179,3651.646987872,11703.996756
1376684479,3581.4230073360004,11703.996756
1376684779,3563.867012202,11703.996756
1376685079,3567.7683444540003,11703.996756
1376685379,3727.722966786,11703.996756
1376685679,3585.3243395880004,11703.996756
1376685979,3573.6203428320005,11703.996756
1376686279,3575.5710089580007,11703.996756
1376686579,3565.817678328,11703.996756
1376686879,3569.71901058,11703.996756
1376687179,3573.6203428320005,11703.996756
1376687479,3577.521675084,11703.996756
1376687779,3571.669676706,11703.996756
1376688079,3634.090992738,11703.996756
1376688379,3532.656354186,11703.996756
1376688679,3556.0643476980003,11703.996756
1376688979,3567.7683444540003,11703.996756
1376689279,3579.4723412100006,11703.996756
1376689579,3647.74565562,11703.996756
1376689879,3583.373673462,11703.996756
1376690179,3641.893657242,11703.996756
1376690479,3579.4723412100006,11703.996756
1376690779,3571.669676706,11703.996756
1376691079,3585.3243395880004,11703.996756
1376691379,3575.5710089580007,11703.996756
1376691679,3608.7323331,11703.996756
1376691979,3630.189660486,11703.996756
1376692279,3579.4723412100006,11703.996756
1376692579,3561.916346076,11703.996756
1376692879,3575.5710089580007,11703.996756
1376693179,3573.6203428320005,11703.996756
1376693480,3563.867012202,11703.996756
1376693780,3565.817678328,11703.996756
1376694080,3561.916346076,11703.996756
1376694380,3581.4230073360004,11703.996756
1376694680,3575.5710089580007,11703.996756
1376694980,3567.7683444540003,11703.996756
1376695280,3569.71901058,11703.996756
1376695580,3563.867012202,11703.996756
1376695880,3575.5710089580007,11703.996756
1376696180,3561.916346076,11703.996756
1376696480,3569.71901058,11703.996756
1376696780,3563.867012202,11703.996756
1376697080,3587.275005714,11703.996756
1376697380,3639.942991116001,11703.996756
1376697680,3567.7683444540003,11703.996756
1376697980,3579.4723412100006,11703.996756
1376698280,3577.521675084,11703.996756
1376698580,3561.916346076,11703.996756
1376698880,3579.4723412100006,11703.996756
1376699180,3563.867012202,11703.996756
1376699480,3561.916346076,11703.996756
1376699780,3655.548320124,11703.996756
1376700080,3575.5710089580007,11703.996756
1376700380,3567.7683444540003,11703.996756
1376700680,3579.4723412100006,11703.996756
1376700980,3647.74565562,11703.996756
1376701280,3573.6203428320005,11703.996756
1376701581,3587.275005714,11703.996756
1376701881,3577.521675084,11703.996756
1376702181,3559.96567995,11703.996756
1376702481,3641.893657242,11703.996756
1376702781,3573.6203428320005,11703.996756
1376703081,3645.794989494,11703.996756
1376703381,3575.5710089580007,11703.996756
1376703681,3573.6203428320005,11703.996756
1376703981,3565.817678328,11703.996756
1376704281,3563.867012202,11703.996756
1376704581,3581.4230073360004,11703.996756
1376704881,3565.817678328,11703.996756
1376705181,3575.5710089580007,11703.996756
1376705481,3575.5710089580007,11703.996756
1376705781,3563.867012202,11703.996756
1376706081,3559.96567995,11703.996756
1376706381,3552.1630154460004,11703.996756
1376706681,3554.113681572,11703.996756
1376706981,3501.44569617,11703.996756
1376707281,3497.5443639180007,11703.996756
1376707581,3524.853689682,11703.996756
1376707881,3513.149692926,11703.996756
1376708181,3519.001691304,11703.996756
1376708481,3517.051025178,11703.996756
1376708781,3517.051025178,11703.996756
1376709081,3517.051025178,11703.996756
1376709381,3495.593697792,11703.996756
1376709681,3499.495030044,11703.996756
1376709981,3520.9523574300006,11703.996756
1376710281,3509.248360674,11703.996756
1376710581,3503.396362296,11703.996756
1376710881,3558.015013824,11703.996756
1376711181,3571.669676706,11703.996756
1376711481,3559.96567995,11703.996756
1376711781,3573.6203428320005,11703.996756
1376712082,3554.113681572,11703.996756
1376712382,3559.96567995,11703.996756
1376712682,3567.7683444540003,11703.996756
1376712982,3571.669676706,11703.996756
1376713282,3641.893657242,11703.996756
1376713582,3661.400318502,11703.996756
1376713882,3579.4723412100006,11703.996756
1376714182,3573.6203428320005,11703.996756
1376714482,3577.521675084,11703.996756
1376714782,3571.669676706,11703.996756
1376715082,3624.337662108,11703.996756
1376715382,3606.781666974001,11703.996756
1376715682,3659.449652376,11703.996756
1376715982,3575.5710089580007,11703.996756
1376716282,3567.7683444540003,11703.996756
1376716582,3579.4723412100006,11703.996756
1376716882,3561.916346076,11703.996756
1376717182,3575.5710089580007,11703.996756
1376717482,3565.817678328,11703.996756
1376717782,3579.4723412100006,11703.996756
1376718082,3563.867012202,11703.996756
1376718382,3573.6203428320005,11703.996756
1376718682,3563.867012202,11703.996756
1376718982,3571.669676706,11703.996756
1376719282,3563.867012202,11703.996756
1376719582,3583.373673462,11703.996756
1376719882,3565.817678328,11703.996756
1376720182,3581.4230073360004,11703.996756
1376720482,3575.5710089580007,11703.996756
1376720782,3569.71901058,11703.996756
1376721082,3565.817678328,11703.996756
1376721382,3651.646987872,11703.996756
1376721682,3649.696321746,11703.996756
1376721982,3585.3243395880004,11703.996756
1376722282,3569.71901058,11703.996756
1376722582,3583.373673462,11703.996756
1376722882,3567.7683444540003,11703.996756
1376723182,3659.449652376,11703.996756
1376723482,3671.153649132,11703.996756
1376723782,3565.817678328,11703.996756
1376724082,3565.817678328,11703.996756
1376724382,3567.7683444540003,11703.996756
1376724682,3573.6203428320005,11703.996756
1376724982,3563.867012202,11703.996756
1376725282,3591.1763379660006,11703.996756
1376725582,3565.817678328,11703.996756
1376725882,3653.597653998,11703.996756
1376726182,3561.916346076,11703.996756
1376726482,3579.4723412100006,11703.996756
1376726782,3575.5710089580007,11703.996756
1376727082,3591.1763379660006,11703.996756
1376727382,3571.669676706,11703.996756
1376727682,3589.22567184,11703.996756
1376727982,3573.6203428320005,11703.996756
1376728282,3579.4723412100006,11703.996756
1376728583,3567.7683444540003,11703.996756
1376728883,3669.202983006,11703.996756
1376729183,3569.71901058,11703.996756
1376729483,3567.7683444540003,11703.996756
1376729783,3645.794989494,11703.996756
1376730083,3579.4723412100006,11703.996756
1376730383,3577.521675084,11703.996756
1376730683,3585.3243395880004,11703.996756
1376730983,3643.844323368001,11703.996756
1376731283,3569.71901058,11703.996756
1376731583,3565.817678328,11703.996756
1376731883,3579.4723412100006,11703.996756
1376732183,3569.71901058,11703.996756
1376732483,3591.1763379660006,11703.996756
1376732783,3573.6203428320005,11703.996756
1376733083,3567.7683444540003,11703.996756
1376733383,3647.74565562,11703.996756
1376733683,3579.4723412100006,11703.996756
1376733983,3575.5710089580007,11703.996756
1376734283,3589.22567184,11703.996756
1376734583,3647.74565562,11703.996756
1376734883,3565.817678328,11703.996756
1376735184,3653.597653998,11703.996756
1376735484,3653.597653998,11703.996756
1376735784,3565.817678328,11703.996756
1376736084,3589.22567184,11703.996756
1376736384,3569.71901058,11703.996756
1376736684,3565.817678328,11703.996756
1376736984,3563.867012202,11703.996756
1376737284,3569.71901058,11703.996756
1376737584,3585.3243395880004,11703.996756
1376737884,3587.275005714,11703.996756
1376738184,3567.7683444540003,11703.996756
1376738484,3647.74565562,11703.996756
1376738784,3569.71901058,11703.996756
1376739084,3573.6203428320005,11703.996756
1376739384,3636.041658864001,11703.996756
1376739684,3639.942991116001,11703.996756
1376739984,3536.557686438,11703.996756
1376740284,3602.880334722001,11703.996756
1376740584,3538.5083525640007,11703.996756
1376740884,3577.521675084,11703.996756
1376741184,3571.669676706,11703.996756
1376741484,3665.301650754,11703.996756
1376741784,3567.7683444540003,11703.996756
1376742084,3641.893657242,11703.996756
1376742384,3571.669676706,11703.996756
1376742684,3577.521675084,11703.996756
1376742984,3645.794989494,11703.996756
1376743284,3587.275005714,11703.996756
1376743584,3651.646987872,11703.996756
1376743885,3649.696321746,11703.996756
1376744185,3559.96567995,11703.996756
1376744485,3579.4723412100006,11703.996756
1376744785,3575.5710089580007,11703.996756
1376745085,3661.400318502,11703.996756
1376745385,3561.916346076,11703.996756
1376745685,3565.817678328,11703.996756
1376745985,3649.696321746,11703.996756
1376746285,3567.7683444540003,11703.996756
1376746585,3559.96567995,11703.996756
1376746885,3585.3243395880004,11703.996756
1376747185,3575.5710089580007,11703.996756
1376747485,3567.7683444540003,11703.996756
1376747785,3647.74565562,11703.996756
1376748085,3583.373673462,11703.996756
1376748385,3565.817678328,11703.996756
1376748685,3585.3243395880004,11703.996756
1376748985,3565.817678328,11703.996756
1376749285,3559.96567995,11703.996756
1376749585,3565.817678328,11703.996756
1376749885,3573.6203428320005,11703.996756
1376750185,3561.916346076,11703.996756
1376750485,3591.1763379660006,11703.996756
1376750785,3647.74565562,11703.996756
1376751085,3563.867012202,11703.996756
1376751385,3561.916346076,11703.996756
1376751685,3579.4723412100006,11703.996756
1376751985,3567.7683444540003,11703.996756
1376752285,3587.275005714,11703.996756
1376752586,3567.7683444540003,11703.996756
1376752886,3649.696321746,11703.996756
1376753186,3622.386995982,11703.996756
1376753485,3598.9790024700005,11703.996756
1376753785,3559.96567995,11703.996756
1376754085,3589.22567184,11703.996756
1376754385,3563.867012202,11703.996756
1376754685,3563.867012202,11703.996756
1376754985,3563.867012202,11703.996756
1376755285,3663.350984628,11703.996756
1376755585,3565.817678328,11703.996756
1376755885,3589.22567184,11703.996756
1376756185,3567.7683444540003,11703.996756
1376756485,3637.99232499,11703.996756
1376756785,3563.867012202,11703.996756
1376757085,3573.6203428320005,11703.996756
1376757385,3559.96567995,11703.996756
1376757685,3589.22567184,11703.996756
1376757985,3659.449652376,11703.996756
1376758285,3563.867012202,11703.996756
1376758585,3643.844323368001,11703.996756
1376758885,3581.4230073360004,11703.996756
1376759186,3579.4723412100006,11703.996756
1376759486,3587.275005714,11703.996756
1376759786,3559.96567995,11703.996756
1376760086,3565.817678328,11703.996756
1376760386,3577.521675084,11703.996756
1376760686,3563.867012202,11703.996756
1376760986,3565.817678328,11703.996756
1376761286,3589.22567184,11703.996756
1376761586,3579.4723412100006,11703.996756
1376761886,3573.6203428320005,11703.996756
1376762186,3575.5710089580007,11703.996756
1376762486,3567.7683444540003,11703.996756
1376762786,3581.4230073360004,11703.996756
1376763086,3591.1763379660006,11703.996756
1376763386,3565.817678328,11703.996756
1376763686,3561.916346076,11703.996756
1376763986,3577.521675084,11703.996756
1376764286,3567.7683444540003,11703.996756
1376764586,3563.867012202,11703.996756
1376764886,3587.275005714,11703.996756
1376765186,3563.867012202,11703.996756
1376765486,3567.7683444540003,11703.996756
1376765786,3575.5710089580007,11703.996756
1376766086,3559.96567995,11703.996756
1376766386,3575.5710089580007,11703.996756
1376766686,3673.104315258001,11703.996756
1376766986,3565.817678328,11703.996756
1376767286,3563.867012202,11703.996756
1376767586,3571.669676706,11703.996756
1376767886,3563.867012202,11703.996756
1376768187,3565.817678328,11703.996756
1376768487,3585.3243395880004,11703.996756
1376768787,3561.916346076,11703.996756
1376769087,3649.696321746,11703.996756
1376769387,3571.669676706,11703.996756
1376769687,3573.6203428320005,11703.996756
1376769987,3571.669676706,11703.996756
1376770287,3571.669676706,11703.996756
1376770587,3677.00564751,11703.996756
1376770887,3567.7683444540003,11703.996756
1376771187,3565.817678328,11703.996756
1376771487,3577.521675084,11703.996756
1376771787,3565.817678328,11703.996756
1376772087,3567.7683444540003,11703.996756
1376772387,3593.127004092,11703.996756
1376772687,3573.6203428320005,11703.996756
1376772987,3563.867012202,11703.996756
1376773287,3573.6203428320005,11703.996756
1376773587,3569.71901058,11703.996756
1376773887,3561.916346076,11703.996756
1376774187,3589.22567184,11703.996756
1376774487,3569.71901058,11703.996756
1376774787,3559.96567995,11703.996756
1376775087,3579.4723412100006,11703.996756
1376775387,3563.867012202,11703.996756
1376775687,3561.916346076,11703.996756
1376775988,3591.1763379660006,11703.996756
1376776288,3563.867012202,11703.996756
1376776588,3563.867012202,11703.996756
1376776891,3579.4723412100006,11703.996756
1376777191,3573.6203428320005,11703.996756
1376777491,3563.867012202,11703.996756
1376777791,3591.1763379660006,11703.996756
1376778091,3567.7683444540003,11703.996756
1376778391,3569.71901058,11703.996756
1376778691,3665.301650754,11703.996756
1376778991,3567.7683444540003,11703.996756
1376779291,3563.867012202,11703.996756
1376779591,3595.077670218,11703.996756
1376779891,3567.7683444540003,11703.996756
1376780191,3565.817678328,11703.996756
1376780491,3577.521675084,11703.996756
1376780791,3569.71901058,11703.996756
1376781091,3659.449652376,11703.996756
1376781391,3632.140326612001,11703.996756
1376781691,3602.880334722001,11703.996756
1376781991,3563.867012202,11703.996756
1376782291,3577.521675084,11703.996756
1376782591,3561.916346076,11703.996756
1376782891,3563.867012202,11703.996756
1376783191,3577.521675084,11703.996756
1376783491,3577.521675084,11703.996756
1376783791,3561.916346076,11703.996756
1376784091,3581.4230073360004,11703.996756
1376784392,3567.7683444540003,11703.996756
1376784692,3567.7683444540003,11703.996756
1376784992,3597.0283363440003,11703.996756
1376785292,3639.942991116001,11703.996756
1376785592,3641.893657242,11703.996756
1376785892,3583.373673462,11703.996756
1376786191,3565.817678328,11703.996756
1376786491,3577.521675084,11703.996756
1376786791,3567.7683444540003,11703.996756
1376787091,3575.5710089580007,11703.996756
1376787391,3563.867012202,11703.996756
1376787691,3579.4723412100006,11703.996756
1376787991,3575.5710089580007,11703.996756
1376788291,3565.817678328,11703.996756
1376788591,3587.275005714,11703.996756
1376788891,3567.7683444540003,11703.996756
1376789191,3565.817678328,11703.996756
1376789491,3569.71901058,11703.996756
1376789791,3647.74565562,11703.996756
1376790092,3561.916346076,11703.996756
1376790392,3649.696321746,11703.996756
1376790692,3573.6203428320005,11703.996756
1376790992,3559.96567995,11703.996756
1376791292,3639.942991116001,11703.996756
1376791592,3567.7683444540003,11703.996756
1376791892,3538.5083525640007,11703.996756
1376792192,3519.001691304,11703.996756
1376792492,3507.297694548,11703.996756
1376792792,3468.2843720280007,11703.996756
1376793092,3507.297694548,11703.996756
1376793392,3581.4230073360004,11703.996756
1376793692,3517.051025178,11703.996756
1376793992,3511.1990268,11703.996756
1376794292,3542.409684816,11703.996756
1376794592,3558.015013824,11703.996756
1376794892,3429.271049508,11703.996756
1376795192,3448.777710768,11703.996756
1376795492,3479.988368784,11703.996756
1376795792,3548.261683194,11703.996756
1376796092,3575.5710089580007,11703.996756
1376796392,3573.6203428320005,11703.996756
1376796692,3573.6203428320005,11703.996756
1376796992,3561.916346076,11703.996756
1376797292,3643.844323368001,11703.996756
1376797592,3639.942991116001,11703.996756
1376797892,3571.669676706,11703.996756
1376798193,3559.96567995,11703.996756
1376798493,3550.2123493200006,11703.996756
1376798793,3573.6203428320005,11703.996756
1376799093,3581.4230073360004,11703.996756
1376799393,3567.7683444540003,11703.996756
1376799693,3579.4723412100006,11703.996756
1376799993,3563.867012202,11703.996756
1376800293,3575.5710089580007,11703.996756
1376800593,3651.646987872,11703.996756
1376800893,3583.373673462,11703.996756
1376801193,3569.71901058,11703.996756
1376801493,3577.521675084,11703.996756
1376801793,3567.7683444540003,11703.996756
1376802093,3577.521675084,11703.996756
1376802393,3573.6203428320005,11703.996756
1376802693,3575.5710089580007,11703.996756
1376802993,3561.916346076,11703.996756
1376803293,3569.71901058,11703.996756
1376803593,3634.090992738,11703.996756
1376803893,3573.6203428320005,11703.996756
1376804193,3565.817678328,11703.996756
1376804493,3573.6203428320005,11703.996756
1376804793,3558.015013824,11703.996756
1376805093,3575.5710089580007,11703.996756
1376805393,3641.893657242,11703.996756
1376805693,3649.696321746,11703.996756
1376805993,3573.6203428320005,11703.996756
1376806293,3571.669676706,11703.996756
1376806593,3563.867012202,11703.996756
1376806893,3559.96567995,11703.996756
1376807193,3655.548320124,11703.996756
1376807493,3577.521675084,11703.996756
1376807793,3558.015013824,11703.996756
1376808093,3573.6203428320005,11703.996756
1376808393,3561.916346076,11703.996756
1376808693,3577.521675084,11703.996756
1376808993,3567.7683444540003,11703.996756
1376809293,3569.71901058,11703.996756
1376809593,3565.817678328,11703.996756
1376809894,3573.6203428320005,11703.996756
1376810194,3563.867012202,11703.996756
1376810494,3567.7683444540003,11703.996756
1376810794,3559.96567995,11703.996756
1376811094,3659.449652376,11703.996756
1376811394,3565.817678328,11703.996756
1376811694,3573.6203428320005,11703.996756
1376811994,3569.71901058,11703.996756
1376812294,3573.6203428320005,11703.996756
1376812594,3565.817678328,11703.996756
1376812894,3577.521675084,11703.996756
1376813194,3565.817678328,11703.996756
1376813494,3598.9790024700005,11703.996756
1376813794,3630.189660486,11703.996756
1376814094,3575.5710089580007,11703.996756
1376814394,3624.337662108,11703.996756
1376814694,3593.127004092,11703.996756
1376814994,3561.916346076,11703.996756
1376815294,3575.5710089580007,11703.996756
1376815594,3571.669676706,11703.996756
1376815894,3565.817678328,11703.996756
1376816194,3559.96567995,11703.996756
1376816494,3569.71901058,11703.996756
1376816794,3571.669676706,11703.996756
1376817094,3565.817678328,11703.996756
1376817394,3585.3243395880004,11703.996756
1376817694,3565.817678328,11703.996756
1376817994,3558.015013824,11703.996756
1376818294,3579.4723412100006,11703.996756
1376818594,3565.817678328,11703.996756
1376818894,3573.6203428320005,11703.996756
1376819194,3567.7683444540003,11703.996756
1376819494,3577.521675084,11703.996756
1376819794,3653.597653998,11703.996756
1376820094,3569.71901058,11703.996756
1376820394,3571.669676706,11703.996756
1376820694,3663.350984628,11703.996756
1376820994,3569.71901058,11703.996756
1376821294,3571.669676706,11703.996756
1376821594,3565.817678328,11703.996756
1376821894,3575.5710089580007,11703.996756
1376822194,3558.015013824,11703.996756
1376822494,3573.6203428320005,11703.996756
1376822794,3579.4723412100006,11703.996756
1376823094,3563.867012202,11703.996756
1376823394,3569.71901058,11703.996756
1376823694,3569.71901058,11703.996756
1376823995,3571.669676706,11703.996756
1376824295,3559.96567995,11703.996756
1376824595,3583.373673462,11703.996756
1376824895,3569.71901058,11703.996756
1376825195,3571.669676706,11703.996756
1376825495,3563.867012202,11703.996756
1376825795,3653.597653998,11703.996756
1376826095,3645.794989494,11703.996756
1376826395,3589.22567184,11703.996756
1376826695,3563.867012202,11703.996756
1376826995,3567.7683444540003,11703.996756
1376827295,3577.521675084,11703.996756
1376827595,3569.71901058,11703.996756
1376827895,3567.7683444540003,11703.996756
1376828195,3585.3243395880004,11703.996756
1376828495,3643.844323368001,11703.996756
1376828795,3630.189660486,11703.996756
1376829095,3597.0283363440003,11703.996756
1376829395,3563.867012202,11703.996756
1376829695,3561.916346076,11703.996756
1376829995,3597.0283363440003,11703.996756
1376830295,3567.7683444540003,11703.996756
1376830595,3655.548320124,11703.996756
1376830895,3647.74565562,11703.996756
1376831195,3581.4230073360004,11703.996756
1376831495,3565.817678328,11703.996756
1376831795,3585.3243395880004,11703.996756
1376832096,3571.669676706,11703.996756
1376832396,3573.6203428320005,11703.996756
1376832696,3575.5710089580007,11703.996756
1376832996,3565.817678328,11703.996756
1376833296,3641.893657242,11703.996756
1376833596,3587.275005714,11703.996756
1376833896,3657.49898625,11703.996756
1376834196,3569.71901058,11703.996756
1376834495,3573.6203428320005,11703.996756
1376834795,3571.669676706,11703.996756
1376835095,3563.867012202,11703.996756
1376835395,3581.4230073360004,11703.996756
1376835695,3579.4723412100006,11703.996756
1376835995,3556.0643476980003,11703.996756
1376836295,3573.6203428320005,11703.996756
1376836595,3563.867012202,11703.996756
1376836895,3647.74565562,11703.996756
1376837195,3575.5710089580007,11703.996756
1376837495,3655.548320124,11703.996756
1376837795,3565.817678328,11703.996756
1376838096,3577.521675084,11703.996756
1376838396,3565.817678328,11703.996756
1376838696,3565.817678328,11703.996756
1376838996,3573.6203428320005,11703.996756
1376839296,3569.71901058,11703.996756
1376839596,3565.817678328,11703.996756
1376839896,3579.4723412100006,11703.996756
1376840196,3563.867012202,11703.996756
1376840496,3655.548320124,11703.996756
1376840796,3579.4723412100006,11703.996756
1376841096,3563.867012202,11703.996756
1376841396,3583.373673462,11703.996756
1376841696,3567.7683444540003,11703.996756
1376841996,3573.6203428320005,11703.996756
1376842296,3569.71901058,11703.996756
1376842596,3571.669676706,11703.996756
1376842896,3575.5710089580007,11703.996756
1376843196,3583.373673462,11703.996756
1376843496,3563.867012202,11703.996756
1376843796,3565.817678328,11703.996756
1376844096,3563.867012202,11703.996756
1376844396,3647.74565562,11703.996756
1376844696,3581.4230073360004,11703.996756
1376844996,3591.1763379660006,11703.996756
1376845296,3565.817678328,11703.996756
1376845596,3573.6203428320005,11703.996756
1376845896,3653.597653998,11703.996756
1376846196,3622.386995982,11703.996756
1376846496,3600.929668596,11703.996756
1376846796,3589.22567184,11703.996756
1376847096,3554.113681572,11703.996756
1376847396,3643.844323368001,11703.996756
1376847696,3536.557686438,11703.996756
1376847996,3610.682999226,11703.996756
1376848296,3552.1630154460004,11703.996756
1376848596,3546.3110170680006,11703.996756
1376848896,3606.781666974001,11703.996756
1376849196,3573.6203428320005,11703.996756
1376849496,3563.867012202,11703.996756
1376849796,3577.521675084,11703.996756
1376850096,3587.275005714,11703.996756
1376850396,3575.5710089580007,11703.996756
1376850696,3565.817678328,11703.996756
1376850996,3565.817678328,11703.996756
1376851296,3563.867012202,11703.996756
1376851596,3565.817678328,11703.996756
1376851896,3591.1763379660006,11703.996756
1376852196,3571.669676706,11703.996756
1376852496,3563.867012202,11703.996756
1376852796,3567.7683444540003,11703.996756
1376853096,3587.275005714,11703.996756
1376853396,3616.534997604,11703.996756
1376853697,3598.9790024700005,11703.996756
1376853996,3597.0283363440003,11703.996756
1376854297,3612.633665352,11703.996756
1376854597,3561.916346076,11703.996756
1376854897,3559.96567995,11703.996756
1376855197,3561.916346076,11703.996756
1376855497,3597.0283363440003,11703.996756
1376855797,3643.844323368001,11703.996756
1376856097,3655.548320124,11703.996756
1376856397,3573.6203428320005,11703.996756
1376856697,3563.867012202,11703.996756
1376856997,3565.817678328,11703.996756
1376857297,3600.929668596,11703.996756
1376857597,3565.817678328,11703.996756
1376857897,3636.041658864001,11703.996756
1376858197,3569.71901058,11703.996756
1376858497,3565.817678328,11703.996756
1376858797,3649.696321746,11703.996756
1376859097,3606.781666974001,11703.996756
1376859397,3563.867012202,11703.996756
1376859697,3565.817678328,11703.996756
1376859997,3573.6203428320005,11703.996756
1376860297,3565.817678328,11703.996756
1376860597,3561.916346076,11703.996756
1376860897,3581.4230073360004,11703.996756
1376861197,3591.1763379660006,11703.996756
1376861497,3563.867012202,11703.996756
1376861797,3563.867012202,11703.996756
1376862097,3563.867012202,11703.996756
1376862397,3567.7683444540003,11703.996756
1376862697,3573.6203428320005,11703.996756
1376862997,3587.275005714,11703.996756
1376863298,3563.867012202,11703.996756
1376863598,3567.7683444540003,11703.996756
1376863898,3561.916346076,11703.996756
1376864198,3559.96567995,11703.996756
1376864498,3573.6203428320005,11703.996756
1376864798,3583.373673462,11703.996756
1376865098,3563.867012202,11703.996756
1376865398,3563.867012202,11703.996756
1376865698,3559.96567995,11703.996756
1376865998,3563.867012202,11703.996756
1376866298,3577.521675084,11703.996756
1376866599,3591.1763379660006,11703.996756
1376866899,3637.99232499,11703.996756
1376867199,3647.74565562,11703.996756
1376867500,3565.817678328,11703.996756
1376867801,3565.817678328,11703.996756
1376868101,3591.1763379660006,11703.996756
1376868401,3583.373673462,11703.996756
1376868701,3565.817678328,11703.996756
1376869001,3565.817678328,11703.996756
1376869301,3561.916346076,11703.996756
1376869601,3655.548320124,11703.996756
1376869901,3589.22567184,11703.996756
1376870201,3651.646987872,11703.996756
1376870501,3565.817678328,11703.996756
1376870801,3571.669676706,11703.996756
1376871101,3569.71901058,11703.996756
1376871401,3675.054981384,11703.996756
1376871701,3647.74565562,11703.996756
1376872001,3579.4723412100006,11703.996756
1376872301,3563.867012202,11703.996756
1376872601,3565.817678328,11703.996756
1376872901,3565.817678328,11703.996756
1376873201,3567.7683444540003,11703.996756
1376873501,3587.275005714,11703.996756
1376873801,3602.880334722001,11703.996756
1376874101,3706.2656394,11703.996756
1376874401,3561.916346076,11703.996756
1376874701,3559.96567995,11703.996756
1376875001,3556.0643476980003,11703.996756
1376875301,3587.275005714,11703.996756
1376875601,3577.521675084,11703.996756
1376875901,3554.113681572,11703.996756
1376876201,3558.015013824,11703.996756
1376876501,3556.0643476980003,11703.996756
1376876801,3573.6203428320005,11703.996756
1376877101,3579.4723412100006,11703.996756
1376877401,3569.71901058,11703.996756
1376877701,3563.867012202,11703.996756
1376878001,3571.669676706,11703.996756
1376878302,3559.96567995,11703.996756
1376878602,3649.696321746,11703.996756
1376878902,3524.853689682,11703.996756
1376879202,3534.607020312,11703.996756
1376879502,3550.2123493200006,11703.996756
1376879802,3530.70568806,11703.996756
1376880102,3524.853689682,11703.996756
1376880402,3524.853689682,11703.996756
1376880702,3468.2843720280007,11703.996756
1376881002,3520.9523574300006,11703.996756
1376881302,3511.1990268,11703.996756
1376881602,3515.1003590520004,11703.996756
1376881902,3540.45901869,11703.996756
1376882202,3509.248360674,11703.996756
1376882502,3536.557686438,11703.996756
1376882802,3526.8043558080008,11703.996756
1376883102,3513.149692926,11703.996756
1376883402,3643.844323368001,11703.996756
1376883702,3565.817678328,11703.996756
1376884002,3655.548320124,11703.996756
1376884302,3589.22567184,11703.996756
1376884602,3571.669676706,11703.996756
1376884902,3657.49898625,11703.996756
1376885202,3575.5710089580007,11703.996756
1376885502,3565.817678328,11703.996756
1376885802,3571.669676706,11703.996756
1376886102,3579.4723412100006,11703.996756
1376886402,3577.521675084,11703.996756
1376886702,3567.7683444540003,11703.996756
1376887002,3565.817678328,11703.996756
1376887302,3563.867012202,11703.996756
1376887602,3663.350984628,11703.996756
1376887902,3657.49898625,11703.996756
1376888202,3575.5710089580007,11703.996756
1376888502,3565.817678328,11703.996756
1376888802,3575.5710089580007,11703.996756
1376889102,3565.817678328,11703.996756
1376889403,3653.597653998,11703.996756
1376889703,3597.0283363440003,11703.996756
1376890003,3577.521675084,11703.996756
1376890303,3559.96567995,11703.996756
1376890603,3565.817678328,11703.996756
1376890903,3569.71901058,11703.996756
1376891203,3585.3243395880004,11703.996756
1376891503,3569.71901058,11703.996756
1376891803,3659.449652376,11703.996756
1376892103,3573.6203428320005,11703.996756
1376892403,3571.669676706,11703.996756
1376892703,3573.6203428320005,11703.996756
1376893003,3663.350984628,11703.996756
1376893303,3569.71901058,11703.996756
1376893603,3669.202983006,11703.996756
1376893903,3526.8043558080008,11703.996756
1376894203,3606.781666974001,11703.996756
1376894503,3526.8043558080008,11703.996756
1376894803,3548.261683194,11703.996756
1376895103,3534.607020312,11703.996756
1376895403,3569.71901058,11703.996756
1376895703,3565.817678328,11703.996756
1376896003,3573.6203428320005,11703.996756
1376896304,3636.041658864001,11703.996756
1376896604,3616.534997604,11703.996756
1376896904,3717.969636156,11703.996756
1376897204,3756.982958676,11703.996756
1376897504,3903.282918126,11703.996756
1376897804,4203.68550153,11703.996756
1376898104,3716.01897003,11703.996756
1376898404,3969.60556641,11703.996756
1376898704,3846.713600472,11703.996756
1376899004,3850.614932724,11703.996756
1376899304,6347.467574004,11703.996756
1376899604,6721.995470196,11703.996756
1376899904,4188.080172522,11703.996756
1376900204,3835.009603716,11703.996756
1376900504,4281.71214657,11703.996756
1376900804,3792.094948944,11703.996756
1376901104,3716.01897003,11703.996756
1376901404,3686.75897814,11703.996756
1376901704,3792.094948944,11703.996756
1376902004,4369.49212224,11703.996756
1376902304,3959.85223578,11703.996756
1376902604,3909.134916504,11703.996756
1376902904,4110.053527482,11703.996756
1376903204,4408.5054447600005,11703.996756
1376903504,4726.464023298,11703.996756
1376903804,4227.0934950420005,11703.996756
1376904104,4080.793535592,11703.996756
1376904404,6341.6155756260005,11703.996756
1376904704,7872.888484536001,11703.996756
1376905004,6544.484852730001,11703.996756
1376905304,5567.201123604001,11703.996756
1376905604,4310.972138460001,11703.996756
1376905904,5654.981099274,11703.996756
1376906204,6181.660953294,11703.996756
1376906504,4652.33871051,11703.996756
1376906804,3856.4669311020007,11703.996756
1376907104,4451.420099532,11703.996756
1376907404,3897.430919748,11703.996756
1376907704,4096.3988646,11703.996756
1376908004,4297.317475578,11703.996756
1376908304,5167.314567773999,11703.996756
1376908604,4326.577467468001,11703.996756
1376908904,4312.922804586,11703.996756
1376909204,4217.340164412,11703.996756
1376909504,4498.236086556,11703.996756
1376909804,3862.31892948,11703.996756
1376910104,4207.586833782,11703.996756
1376910404,4831.799994102,11703.996756
1376910705,6027.5583293400005,11703.996756
1376911005,5731.057078188,11703.996756
1376911305,6515.2248608400005,11703.996756
1376911605,8920.396194198,11703.996756
1376911905,6889.752757032,11703.996756
1376912205,5832.49171674,11703.996756
1376912505,5621.819775132,11703.996756
1376912805,7947.013797324001,11703.996756
1376913105,7075.066039002001,11703.996756
1376913405,4652.33871051,11703.996756
1376913705,5255.094543444,11703.996756
1376914005,3850.614932724,11703.996756
1376914305,3823.30560696,11703.996756
1376914605,3827.2069392120006,11703.996756
1376914905,3807.700277952,11703.996756
1376915205,3897.430919748,11703.996756
1376915505,3797.9469473220006,11703.996756
1376915805,3799.897613448001,11703.996756
1376916105,3794.04561507,11703.996756
1376916405,3928.641577764,11703.996756
1376916705,4035.928214694,11703.996756
1376917005,5705.6984185500005,11703.996756
1376917305,4283.662812696,11703.996756
1376917605,3973.506898662,11703.996756
1376917905,4045.681545324,11703.996756
1376918205,3959.85223578,11703.996756
1376918505,3998.8655583,11703.996756
1376918805,4178.326841892001,11703.996756
1376919105,4980.050619678,11703.996756
1376919405,5586.707784863999,11703.996756
1376919705,7640.759215542,11703.996756
1376920005,5274.601204704001,11703.996756
1376920306,5132.202577506,11703.996756
1376920606,4344.133462602,11703.996756
1376920906,4533.348076824001,11703.996756
1376921206,5046.373267962,11703.996756
1376921506,4205.636167656001,11703.996756
1376921806,4373.393454492,11703.996756
1376922106,3819.404274708,11703.996756
1376922406,3994.964226048001,11703.996756
1376922706,4673.796037896001,11703.996756
1376923006,4578.213397722,11703.996756
1376923306,4273.909482066,11703.996756
1376923606,3741.377629668,11703.996756
1376923906,3797.9469473220006,11703.996756
1376924206,4090.546866222001,11703.996756
1376924506,4270.008149814001,11703.996756
1376924806,3702.364307148,11703.996756
1376925106,3739.426963542,11703.996756
1376925406,3938.394908394,11703.996756
1376925706,3682.857645888,11703.996756
1376926006,3803.7989457,11703.996756
1376926306,3916.937581008001,11703.996756
1376926606,4147.116183876001,11703.996756
1376926906,5518.434470454001,11703.996756
1376927206,5768.119734582,11703.996756
1376927506,7309.145974122001,11703.996756
1376927806,6290.89825635,11703.996756
1376928106,5155.610571018,11703.996756
1376928406,4074.941537214,11703.996756
1376928706,3961.802901906,11703.996756
1376929006,4365.590789987999,11703.996756
1376929306,3998.8655583,11703.996756
1376929606,3846.713600472,11703.996756
1376929906,3918.888247134,11703.996756
1376930207,3821.354940834,11703.996756
1376930507,3788.193616692,11703.996756
1376930807,3704.314973274,11703.996756
1376931107,3653.597653998,11703.996756
1376931407,3678.956313636,11703.996756
1376931707,3743.328295794,11703.996756
1376932007,3628.238994360001,11703.996756
1376932307,3614.584331478,11703.996756
1376932607,3634.090992738,11703.996756
1376932907,3651.646987872,11703.996756
1376933207,3616.534997604,11703.996756
1376933507,3634.090992738,11703.996756
1376933807,3616.534997604,11703.996756
1376934107,3614.584331478,11703.996756
1376934407,3636.041658864001,11703.996756
1376934707,3630.189660486,11703.996756
1376935007,3622.386995982,11703.996756
1376935307,3641.893657242,11703.996756
1376935607,3659.449652376,11703.996756
1376935907,3645.794989494,11703.996756
1376936207,3677.00564751,11703.996756
1376936507,3663.350984628,11703.996756
1376936807,3653.597653998,11703.996756
1376937107,3661.400318502,11703.996756
1376937407,3655.548320124,11703.996756
1376937707,3657.49898625,11703.996756
1376938007,3688.709644266,11703.996756
1376938307,3704.314973274,11703.996756
1376938607,3653.597653998,11703.996756
1376938907,3653.597653998,11703.996756
1376939208,3673.104315258001,11703.996756
1376939508,3655.548320124,11703.996756
1376939808,3684.808312014,11703.996756
1376940108,3665.301650754,11703.996756
1376940408,3846.713600472,11703.996756
1376940708,3704.314973274,11703.996756
1376941008,3716.01897003,11703.996756
1376941308,3647.74565562,11703.996756
1376941608,3690.660310392,11703.996756
1376941908,3710.166971652,11703.996756
1376942208,3721.870968408,11703.996756
1376942508,3671.153649132,11703.996756
1376942808,3719.920302282,11703.996756
1376943108,3653.597653998,11703.996756
1376943408,3755.032292550001,11703.996756
1376943708,3657.49898625,11703.996756
1376944008,3712.117637778,11703.996756
1376944308,3719.920302282,11703.996756
1376944608,3665.301650754,11703.996756
1376944908,3651.646987872,11703.996756
1376945208,3694.561642644,11703.996756
1376945508,3657.49898625,11703.996756
1376945808,3665.301650754,11703.996756
1376946108,3655.548320124,11703.996756
1376946408,3669.202983006,11703.996756
1376946708,3766.736289306001,11703.996756
1376947008,3741.377629668,11703.996756
1376947309,3667.25231688,11703.996756
1376947609,3727.722966786,11703.996756
1376947909,3657.49898625,11703.996756
1376948209,3753.081626424,11703.996756
1376948509,3706.2656394,11703.996756
1376948809,3677.00564751,11703.996756
1376949109,3727.722966786,11703.996756
1376949408,3655.548320124,11703.996756
1376949709,3663.350984628,11703.996756
1376950009,3673.104315258001,11703.996756
1376950309,3706.2656394,11703.996756
1376950609,3731.624299038001,11703.996756
1376950909,3663.350984628,11703.996756
1376951209,3778.440286062,11703.996756
1376951509,3649.696321746,11703.996756
1376951809,3653.597653998,11703.996756
1376952109,3641.893657242,11703.996756
1376952409,3786.242950566,11703.996756
1376952709,3665.301650754,11703.996756
1376953009,3653.597653998,11703.996756
1376953309,3661.400318502,11703.996756
1376953610,3673.104315258001,11703.996756
1376953910,3649.696321746,11703.996756
1376954210,3723.821634534,11703.996756
1376954510,3649.696321746,11703.996756
1376954810,3719.920302282,11703.996756
1376955110,3649.696321746,11703.996756
1376955410,3657.49898625,11703.996756
1376955710,3645.794989494,11703.996756
1376956010,3667.25231688,11703.996756
1376956310,3649.696321746,11703.996756
1376956610,3655.548320124,11703.996756
1376956910,3657.49898625,11703.996756
1376957210,3663.350984628,11703.996756
1376957510,3639.942991116001,11703.996756
1376957810,3667.25231688,11703.996756
1376958110,3659.449652376,11703.996756
1376958410,3645.794989494,11703.996756
1376958710,3725.77230066,11703.996756
1376959010,3651.646987872,11703.996756
1376959310,3645.794989494,11703.996756
1376959610,3673.104315258001,11703.996756
1376959910,3661.400318502,11703.996756
1376960210,3645.794989494,11703.996756
1376960510,3725.77230066,11703.996756
1376960810,3669.202983006,11703.996756
1376961110,3653.597653998,11703.996756
1376961410,3673.104315258001,11703.996756
1376961710,3667.25231688,11703.996756
1376962010,3657.49898625,11703.996756
1376962311,3653.597653998,11703.996756
1376962611,3657.49898625,11703.996756
1376962911,3708.216305526,11703.996756
1376963211,3684.808312014,11703.996756
1376963511,3655.548320124,11703.996756
1376963811,3712.117637778,11703.996756
1376964111,3604.831000848,11703.996756
1376964411,3509.248360674,11703.996756
1376964711,3517.051025178,11703.996756
1376965011,3462.4323736500005,11703.996756
1376965311,3532.656354186,11703.996756
1376965611,3509.248360674,11703.996756
1376965911,3466.333705902,11703.996756
1376966211,3524.853689682,11703.996756
1376966511,3558.015013824,11703.996756
1376966811,3501.44569617,11703.996756
1376967111,3499.495030044,11703.996756
1376967411,3540.45901869,11703.996756
1376967711,3468.2843720280007,11703.996756
1376968011,3479.988368784,11703.996756
1376968311,3487.791033288,11703.996756
1376968611,3462.4323736500005,11703.996756
1376968911,3507.297694548,11703.996756
1376969211,3548.261683194,11703.996756
1376969511,3522.9030235560003,11703.996756
1376969811,3497.5443639180007,11703.996756
1376970111,3530.70568806,11703.996756
1376970411,3460.4817075240003,11703.996756
1376970711,3497.5443639180007,11703.996756
1376971011,3534.607020312,11703.996756
1376971311,3474.136370406,11703.996756
1376971611,3470.235038154,11703.996756
1376971911,3501.44569617,11703.996756
1376972211,3591.1763379660006,11703.996756
1376972512,3478.037702658,11703.996756
1376972812,3524.853689682,11703.996756
1376973112,3507.297694548,11703.996756
1376973412,3663.350984628,11703.996756
1376973712,3657.49898625,11703.996756
1376974012,3677.00564751,11703.996756
1376974312,3723.821634534,11703.996756
1376974612,3651.646987872,11703.996756
1376974912,3661.400318502,11703.996756
1376975212,3671.153649132,11703.996756
1376975512,3706.2656394,11703.996756
1376975812,3665.301650754,11703.996756
1376976112,3741.377629668,11703.996756
1376976412,3708.216305526,11703.996756
1376976712,3665.301650754,11703.996756
1376977012,3719.920302282,11703.996756
1376977312,3675.054981384,11703.996756
1376977612,3764.78562318,11703.996756
1376977912,3678.956313636,11703.996756
1376978212,3647.74565562,11703.996756
1376978512,3671.153649132,11703.996756
1376978812,3659.449652376,11703.996756
1376979112,3716.01897003,11703.996756
1376979412,3641.893657242,11703.996756
1376979712,3673.104315258001,11703.996756
1376980012,3643.844323368001,11703.996756
1376980312,3675.054981384,11703.996756
1376980612,3653.597653998,11703.996756
1376980912,3661.400318502,11703.996756
1376981212,3747.229628046,11703.996756
1376981512,3688.709644266,11703.996756
1376981812,3678.956313636,11703.996756
1376982112,3698.462974896,11703.996756
1376982412,3682.857645888,11703.996756
1376982712,4492.384088178,11703.996756
1376983012,4504.088084934,11703.996756
1376983312,4697.204031408,11703.996756
1376983612,4180.277508018001,11703.996756
1376983912,4271.95881594,11703.996756
1376984212,4069.089538836,11703.996756
1376984512,4160.770846758,11703.996756
1376984812,5301.910530468,11703.996756
1376985112,3938.394908394,11703.996756
1376985412,4825.947995723999,11703.996756
1376985712,4478.729425296,11703.996756
1376986012,4548.9534058320005,11703.996756
1376986312,4669.894705644,11703.996756
1376986612,4564.55873484,11703.996756
1376986912,5686.19175729,11703.996756
1376987212,4474.8280930440005,11703.996756
1376987512,5003.4586131900005,11703.996756
1376987812,4063.237540458,11703.996756
1376988112,4129.560188742,11703.996756
1376988412,3994.964226048001,11703.996756
1376988712,4125.65885649,11703.996756
1376989012,4437.76543665,11703.996756
1376989312,5534.039799462001,11703.996756
1376989612,4558.706736462001,11703.996756
1376989912,4312.922804586,11703.996756
1376990212,4190.030838648,11703.996756
1376990512,4002.766890552,11703.996756
1376990812,4061.286874332001,11703.996756
1376991112,4184.17884027,11703.996756
1376991412,4201.734835404,11703.996756
1376991712,3897.430919748,11703.996756
1376992012,3948.148239024,11703.996756
1376992312,4121.757524238001,11703.996756
1376992612,3747.229628046,11703.996756
1376992913,4061.286874332001,11703.996756
1376993213,5145.857240388001,11703.996756
1376993513,4406.554778634,11703.996756
1376993813,5834.442382866,11703.996756
1376994123,3897.430919748,11703.996756
1376994423,5608.165112250001,11703.996756
1376994724,5106.843917868,11703.996756
1376995024,4991.754616434,11703.996756
1376995324,4106.152195230001,11703.996756
1376995624,4310.972138460001,11703.996756
1376995924,4287.564144948,11703.996756
1376996224,4564.55873484,11703.996756
1376996524,4933.234632654,11703.996756
1376996824,4400.702780256001,11703.996756
1376997124,4035.928214694,11703.996756
1376997424,3677.00564751,11703.996756
1376997724,3879.874924614,11703.996756
1376998024,3989.11222767,11703.996756
1376998324,4845.454656984,11703.996756
1376998624,4367.541456114,11703.996756
1376998924,4160.770846758,11703.996756
1376999224,3819.404274708,11703.996756
1376999524,4082.744201718,11703.996756
1376999824,4238.797491798,11703.996756
1377000124,4110.053527482,11703.996756
1377000424,3924.740245512,11703.996756
1377000724,3952.049571276,11703.996756
1377001024,4072.990871088,11703.996756
1377001324,4139.313519372,11703.996756
1377001624,4285.613478822001,11703.996756
1377001924,4133.461520993999,11703.996756
1377002224,4131.510854868,11703.996756
1377002524,3996.914892174,11703.996756
1377002824,4045.681545324,11703.996756
1377003125,4831.799994102,11703.996756
1377003425,4566.509400966,11703.996756
1377003725,4119.806858112001,11703.996756
1377004025,4301.2188078300005,11703.996756
1377004325,4096.3988646,11703.996756
1377004625,4160.770846758,11703.996756
1377004925,4439.716102776,11703.996756
1377005225,4507.989417186,11703.996756
1377005525,4113.954859734,11703.996756
1377005825,4266.106817562,11703.996756
1377006125,4057.38554208,11703.996756
1377006425,4426.061439894,11703.996756
1377006725,4355.837459358,11703.996756
1377007025,5301.910530468,11703.996756
1377007325,4238.797491798,11703.996756
1377007625,4172.474843514,11703.996756
1377007925,4671.84537177,11703.996756
1377008225,4527.496078446001,11703.996756
1377008525,4449.4694334060005,11703.996756
1377008825,4507.989417186,11703.996756
1377009125,4449.4694334060005,11703.996756
1377009425,4946.889295536001,11703.996756
1377009725,4242.69882405,11703.996756
1377010025,4033.977548568,11703.996756
1377010325,4164.672179010001,11703.996756
1377010625,3922.789579386,11703.996756
1377010925,4111.029141545,11703.997556
1377011226,4197.833790085334,11703.997556
1377011526,4260.255110384,11703.997556
1377011826,4796.688331700666,11703.997556
1377012126,4820.096326812666,11703.997556
1377012426,4143.215134824,11703.997556
1377012726,5100.992268156666,11703.997556
1377013026,4638.684364694666,11703.997556
1377013326,4119.807139712,11703.997556
1377013626,4012.520495448666,11703.997556
1377013926,3817.453869515333,11703.997556
1377014226,3714.0685577706654,11703.997556
1377014526,3864.269859739333,11703.997556
1377014825,4102.251143377999,11703.997556
1377015125,4765.4776715513335,11703.997556
1377015425,4053.484486894667,11703.997556
1377015725,4751.823007736,11703.997556
1377016025,5095.140269378667,11703.997556
1377016325,4145.1658010833335,11703.997556
1377016625,3579.4725858766674,11703.997556
1377016925,3573.620587098668,11703.997556
1377017225,3569.71925458,11703.997556
1377017526,3581.423252136,11703.997556
1377017826,3624.337909841333,11703.997556
1377018126,3575.571253358,11703.997556
1377018426,3577.5219196173334,11703.997556
1377018726,3561.9165895426668,11703.997556
1377019026,3618.485911063333,11703.997556
1377019326,3569.71925458,11703.997556
1377019626,3571.6699208393334,11703.997556
1377019926,3614.584578544667,11703.997556
1377020226,3593.127249692,11703.997556
1377020526,3575.571253358,11703.997556
1377020826,3567.768588320667,11703.997556
1377021126,3558.015257024,11703.997556
1377021426,3577.5219196173334,11703.997556
1377021726,3587.275250914,11703.997556
1377022026,3573.620587098668,11703.997556
1377022326,3569.71925458,11703.997556
1377022626,3620.436577322667,11703.997556
1377022926,3567.768588320667,11703.997556
1377023226,3579.4725858766674,11703.997556
1377023526,3587.275250914,11703.997556
1377023826,3567.768588320667,11703.997556
1377024126,3573.620587098668,11703.997556
1377024426,3569.71925458,11703.997556
1377024726,3643.844572434667,11703.997556
1377025026,3608.732579766666,11703.997556
1377025326,3612.633912285333,11703.997556
1377025627,3645.795238694,11703.997556
1377025927,3591.176583432667,11703.997556
1377026227,3583.373918395333,11703.997556
1377026527,3595.077915951333,11703.997556
1377026827,3602.880580988667,11703.997556
1377027127,3604.831247248,11703.997556
1377027427,3661.4005687686654,11703.997556
1377027727,3565.817922061333,11703.997556
1377028027,3563.867255802,11703.997556
1377028327,3561.9165895426668,11703.997556
1377028627,3575.571253358,11703.997556
1377028927,3591.176583432667,11703.997556
1377029227,3567.768588320667,11703.997556
1377029527,3559.965923283333,11703.997556
1377029827,3569.71925458,11703.997556
1377030127,3593.127249692,11703.997556
1377030427,3626.2885761006673,11703.997556
1377030727,3593.127249692,11703.997556
1377031027,3637.992573656667,11703.997556
1377031327,3589.225917173333,11703.997556
1377031627,3581.423252136,11703.997556
1377031927,3577.5219196173334,11703.997556
1377032227,3602.880580988667,11703.997556
1377032527,3583.373918395333,11703.997556
1377032827,3579.4725858766674,11703.997556
1377033127,3565.817922061333,11703.997556
1377033427,3563.867255802,11703.997556
1377033727,3565.817922061333,11703.997556
1377034027,3561.9165895426668,11703.997556
1377034327,3587.275250914,11703.997556
1377034627,3581.423252136,11703.997556
1377034928,3571.6699208393334,11703.997556
1377035228,3569.71925458,11703.997556
1377035528,3567.768588320667,11703.997556
1377035828,3573.620587098668,11703.997556
1377036128,3575.571253358,11703.997556
1377036428,3581.423252136,11703.997556
1377036728,3567.768588320667,11703.997556
1377037028,3567.768588320667,11703.997556
1377037328,3567.768588320667,11703.997556
1377037628,3579.4725858766674,11703.997556
1377037928,3577.5219196173334,11703.997556
1377038229,3575.571253358,11703.997556
1377038529,3556.064590764667,11703.997556
1377038829,3565.817922061333,11703.997556
1377039129,3561.9165895426668,11703.997556
1377039429,3581.423252136,11703.997556
1377039729,3579.4725858766674,11703.997556
1377040029,3602.880580988667,11703.997556
1377040329,3573.620587098668,11703.997556
1377040629,3573.620587098668,11703.997556
1377040929,3565.817922061333,11703.997556
1377041229,3559.965923283333,11703.997556
1377041529,3567.768588320667,11703.997556
1377041829,3558.015257024,11703.997556
1377042129,3630.329241923572,11703.997556
1377042429,3581.423252136,11703.997556
1377042729,3569.71925458,11703.997556
1377043029,3579.4725858766674,11703.997556
1377043329,3577.5219196173334,11703.997556
1377043629,3589.225917173333,11703.997556
1377043929,3567.768588320667,11703.997556
1377044229,3579.4725858766674,11703.997556
1377044529,3587.275250914,11703.997556
1377044829,3595.077915951333,11703.997556
1377045129,3583.373918395333,11703.997556
1377045429,3589.225917173333,11703.997556
1377045729,3575.571253358,11703.997556
1377046029,3575.571253358,11703.997556
1377046329,3575.571253358,11703.997556
1377046629,3598.97924847,11703.997556
1377046929,3595.077915951333,11703.997556
1377047230,3608.732579766666,11703.997556
1377047529,3579.4725858766674,11703.997556
1377047829,3577.5219196173334,11703.997556
1377048129,3587.275250914,11703.997556
1377048429,3618.485911063333,11703.997556
1377048729,3597.028582210667,11703.997556
1377049029,3597.028582210667,11703.997556
1377049329,3565.817922061333,11703.997556
1377049629,3563.867255802,11703.997556
1377049929,3561.9165895426668,11703.997556
1377050229,3587.275250914,11703.997556
1377050529,3534.6072619120005,11703.997556
1377050829,3499.495269244,11703.997556
1377051129,3534.6072619120005,11703.997556
1377051429,3474.136607872667,11703.997556
1377051729,3499.495269244,11703.997556
1377052029,3454.629945279333,11703.997556
1377052329,3487.7912716880005,11703.997556
1377052629,3505.347268022,11703.997556
1377052929,3520.952598096668,11703.997556
1377053229,3515.100599318668,11703.997556
1377053529,3526.804596874668,11703.997556
1377053830,3495.593936725333,11703.997556
1377054130,3474.136607872667,11703.997556
1377054430,3499.495269244,11703.997556
1377054730,3528.755263134,11703.997556
1377055030,3507.297934281333,11703.997556
1377055330,3474.136607872667,11703.997556
1377055630,3474.136607872667,11703.997556
1377055930,3499.495269244,11703.997556
1377056230,3497.544602984667,11703.997556
1377056530,3491.692604206667,11703.997556
1377056830,3481.9392729100005,11703.997556
1377057130,3501.4459355033327,11703.997556
1377057430,3485.840605428667,11703.997556
1377057730,3495.593936725333,11703.997556
1377058030,3487.7912716880005,11703.997556
1377058330,3513.1499330593333,11703.997556
1377058630,3505.347268022,11703.997556
1377058930,3495.593936725333,11703.997556
1377059230,3515.100599318668,11703.997556
1377059530,3485.840605428667,11703.997556
1377059830,3519.0019318373334,11703.997556
1377060130,3571.6699208393334,11703.997556
1377060430,3569.71925458,11703.997556
1377060730,3583.373918395333,11703.997556
1377061030,3567.768588320667,11703.997556
1377061330,3577.5219196173334,11703.997556
1377061631,3573.620587098668,11703.997556
1377061931,3567.768588320667,11703.997556
1377062231,3569.71925458,11703.997556
1377062531,3585.324584654667,11703.997556
1377062831,3591.176583432667,11703.997556
1377063131,3579.4725858766674,11703.997556
1377063431,3565.817922061333,11703.997556
1377063731,3565.817922061333,11703.997556
1377064031,3571.6699208393334,11703.997556
1377064331,3575.571253358,11703.997556
1377064631,3577.5219196173334,11703.997556
1377064931,3579.4725858766674,11703.997556
1377065231,3628.23924236,11703.997556
1377065531,3567.768588320667,11703.997556
1377065831,3569.71925458,11703.997556
1377066131,3571.6699208393334,11703.997556
1377066431,3581.423252136,11703.997556
1377066731,3581.423252136,11703.997556
1377067031,3565.817922061333,11703.997556
1377067331,3573.620587098668,11703.997556
1377067631,3577.5219196173334,11703.997556
1377067931,3585.324584654667,11703.997556
1377068231,3590.619250215714,11703.997556
1377068531,3577.5219196173334,11703.997556
1377068831,3575.571253358,11703.997556
1377069131,3760.884547994666,11703.997556
1377069432,3842.812530886667,11703.997556
1377069732,3790.1445418846665,11703.997556
1377070032,4045.681821857333,11703.997556
1377070332,3944.247176372001,11703.997556
1377070632,5867.604108074667,11703.997556
1377070932,6798.071913776666,11703.997556
1377071232,5061.97894297,11703.997556
1377071532,5898.814768224,11703.997556
1377071832,6671.27860692,11703.997556
1377072132,4638.684364694666,11703.997556
1377072432,3911.0858499633327,11703.997556
1377072732,4847.405654443334,11703.997556
1377073032,3786.243209366,11703.997556
1377073332,3540.45926069,11703.997556
1377073632,3823.305868293333,11703.997556
1377073932,3548.8192589442856,11703.997556
1377074232,3558.015257024,11703.997556
1377074532,4465.075067614,11703.997556
1377074832,6753.206589812001,11703.997556
1377075132,6208.970703458001,11703.997556
1377075432,6216.773368495334,11703.997556
1377075732,7100.425183973334,11703.997556
1377076032,4482.631063948,11703.997556
1377076332,3626.2885761006673,11703.997556
1377076632,5196.574914864,11703.997556
1377076932,6803.923912554667,11703.997556
1377077232,5715.452139846666,11703.997556
1377077532,4888.369645889334,11703.997556
1377077832,4586.016375692667,11703.997556
1377078132,4086.645813303333,11703.997556
1377078432,4113.955140934,11703.997556
1377078732,4488.483062726,11703.997556
1377079032,4248.551112828,11703.997556
1377079332,4121.757805971334,11703.997556
1377079632,3913.036516222668,11703.997556
1377079932,3825.2565345526673,11703.997556
1377080232,3833.05919959,11703.997556
1377080532,3864.269859739333,11703.997556
1377080832,3756.983215476,11703.997556
1377081132,3753.081882957333,11703.997556
1377081432,3741.3778854013335,11703.997556
1377081732,3795.996540662667,11703.997556
1377082032,3764.785880513333,11703.997556
1377082332,3803.7992057,11703.997556
1377082632,3856.4671947020006,11703.997556
1377082932,4184.17912627,11703.997556
1377083232,4948.840299928666,11703.997556
1377083532,5257.045568903334,11703.997556
1377083832,4570.411045618,11703.997556
1377084132,4642.585697213333,11703.997556
1377084432,4720.612347586667,11703.997556
1377084732,5151.709590899334,11703.997556
1377085032,4786.935000404,11703.997556
1377085332,5296.058894090001,11703.997556
1377085632,5040.521614117333,11703.997556
1377085932,4722.563013846,11703.997556
1377086232,4199.784456344667,11703.997556
1377086532,4209.537787641333,11703.997556
1377086832,4082.744480784667,11703.997556
1377087132,4295.367103052,11703.997556
1377087432,4441.667072502,11703.997556
1377087732,4310.972433126667,11703.997556
1377088032,5110.745599453334,11703.997556
1377088332,4699.155018734,11703.997556
1377088633,3909.135183704,11703.997556
1377088933,3690.6605626586665,11703.997556
1377089233,3696.512561436667,11703.997556
1377089533,3714.0685577706654,11703.997556
1377089833,3795.996540662667,11703.997556
1377090133,3885.727188592,11703.997556
1377090433,4845.454988183999,11703.997556
1377090733,4547.003050506,11703.997556
1377091033,3932.543178816,11703.997556
1377091333,5939.77875967,11703.997556
1377091633,4271.959107940001,11703.997556
1377091933,4646.487029732,11703.997556
1377092233,5705.69880855,11703.997556
1377092533,5988.545416153334,11703.997556
1377092833,4679.648356140667,11703.997556
1377093133,4841.553655665333,11703.997556
1377093433,6558.139963878667,11703.997556
1377093733,5885.160104408667,11703.997556
1377094033,3835.009865849333,11703.997556
1377094333,4677.697689881334,11703.997556
1377094633,5668.636149622666,11703.997556
1377094933,4720.612347586667,11703.997556
1377095233,5766.169462589334,11703.997556
1377095533,4779.132335366668,11703.997556
1377095833,4753.773673995333,11703.997556
1377096133,4554.8057155433335,11703.997556
1377096433,4870.8136495553335,11703.997556
1377096733,4402.653747315333,11703.997556
1377097033,4090.547145822,11703.997556
1377097333,4184.17912627,11703.997556
1377097633,4706.957683771334,11703.997556
1377097933,4855.2083194806655,11703.997556
1377098234,6950.223882004666,11703.997556
1377098534,6236.280031088666,11703.997556
1377098834,5079.534939304,11703.997556
1377099134,4763.5270052920005,11703.997556
1377099434,5385.789542019335,11703.997556
1377099734,4527.496387912667,11703.997556
1377100034,4480.680397688667,11703.997556
1377100334,5253.144236384666,11703.997556
1377100634,4870.8136495553335,11703.997556
1377100934,4683.549688659333,11703.997556
1377101234,5898.814768224,11703.997556
1377101534,5237.53890631,11703.997556
1377101834,5666.685483363333,11703.997556
1377102134,4562.608380580667,11703.997556
1377102434,4560.6577143213335,11703.997556
1377102734,4205.636455122667,11703.997556
1377103034,4213.43912016,11703.997556
1377103334,3887.677854851333,11703.997556
1377103634,3946.1978426313335,11703.997556
1377103934,3899.381852407333,11703.997556
1377104234,3959.852506446667,11703.997556
1377104534,3979.35916904,11703.997556
1377104834,3891.579187370001,11703.997556
1377105134,3889.628521110667,11703.997556
1377105434,3887.677854851333,11703.997556
1377105735,3899.381852407333,11703.997556
1377106035,3901.332518666667,11703.997556
1377106335,4018.372494226666,11703.997556
1377106635,3942.2965101126674,11703.997556
1377106935,3959.852506446667,11703.997556
1377107235,3928.641846297333,11703.997556
1377107535,3946.1978426313335,11703.997556
1377107835,3993.0138328553335,11703.997556
1377108135,3914.987182482,11703.997556
1377108435,3959.852506446667,11703.997556
1377108735,3897.431186148,11703.997556
1377109035,3883.7765223326674,11703.997556
1377109335,3901.332518666667,11703.997556
1377109635,3901.332518666667,11703.997556
1377109935,3885.727188592,11703.997556
1377110235,3881.825856073333,11703.997556
1377110535,3891.579187370001,11703.997556
1377110835,3946.1978426313335,11703.997556
1377111135,3932.543178816,11703.997556
1377111435,3874.023191036,11703.997556
1377111735,3870.121858517333,11703.997556
1377112036,3893.529853629333,11703.997556
1377112336,3961.803172706,11703.997556
1377112636,3938.395177594,11703.997556
1377112935,3889.628521110667,11703.997556
1377113235,3893.529853629333,11703.997556
1377113535,3889.628521110667,11703.997556
1377113835,3879.875189814,11703.997556
1377114135,3901.332518666667,11703.997556
1377114435,3954.0005076686666,11703.997556
1377114735,3891.579187370001,11703.997556
1377115035,3967.655171484,11703.997556
1377115335,3914.987182482,11703.997556
1377115635,3924.7405137786654,11703.997556
1377115935,3932.543178816,11703.997556
1377116235,3920.83918126,11703.997556
1377116535,3932.543178816,11703.997556
1377116835,3918.8885150006654,11703.997556
1377117135,3932.543178816,11703.997556
1377117435,3920.83918126,11703.997556
1377117735,3928.641846297333,11703.997556
1377118036,3922.789847519333,11703.997556
1377118336,3928.641846297333,11703.997556
1377118636,3928.641846297333,11703.997556
1377118936,3918.8885150006654,11703.997556
1377119236,3911.0858499633327,11703.997556
1377119536,3914.987182482,11703.997556
1377119836,3981.309835299333,11703.997556
1377120136,3973.507170262,11703.997556
1377120436,3899.381852407333,11703.997556
1377120736,3879.875189814,11703.997556
1377121036,3872.0725247766673,11703.997556
1377121336,3899.381852407333,11703.997556
1377121636,3883.7765223326674,11703.997556
1377121936,3879.875189814,11703.997556
1377122236,3899.381852407333,11703.997556
1377122537,3881.825856073333,11703.997556
1377122837,3895.4805198886665,11703.997556
1377123137,3899.381852407333,11703.997556
1377123437,3893.529853629333,11703.997556
1377123737,3946.1978426313335,11703.997556
1377124037,3901.332518666667,11703.997556
1377124337,3879.875189814,11703.997556
1377124637,3885.727188592,11703.997556
1377124937,3897.431186148,11703.997556
1377125237,3893.529853629333,11703.997556
1377125537,3881.825856073333,11703.997556
1377125837,3899.381852407333,11703.997556
1377126137,3881.825856073333,11703.997556
1377126437,3952.049841409333,11703.997556
1377126737,3895.4805198886665,11703.997556
1377127037,3895.4805198886665,11703.997556
1377127337,3901.332518666667,11703.997556
1377127637,4069.089816969333,11703.997556
1377127937,3881.825856073333,11703.997556
1377128237,3961.803172706,11703.997556
1377128537,3926.691180038,11703.997556
1377128837,3967.655171484,11703.997556
1377129137,3905.233851185333,11703.997556
1377129437,3889.628521110667,11703.997556
1377129737,3877.924523554667,11703.997556
1377130037,4000.816497892667,11703.997556
1377130337,3874.023191036,11703.997556
1377130637,3874.023191036,11703.997556
1377130937,3926.691180038,11703.997556
1377131237,3959.852506446667,11703.997556
1377131537,3924.7405137786654,11703.997556
1377131837,3920.83918126,11703.997556
1377132138,3924.7405137786654,11703.997556
1377132438,3918.8885150006654,11703.997556
1377132738,3897.431186148,11703.997556
1377133038,3899.381852407333,11703.997556
1377133338,3936.444511334667,11703.997556
1377133638,3928.641846297333,11703.997556
1377133938,3913.036516222668,11703.997556
1377134238,3930.5925125566673,11703.997556
1377134538,3928.641846297333,11703.997556
1377134838,3903.283184926001,11703.997556
1377135138,3985.211167818,11703.997556
1377135438,3926.691180038,11703.997556
1377135738,3946.1978426313335,11703.997556
1377136038,3928.641846297333,11703.997556
1377136338,3901.332518666667,11703.997556
1377136638,3967.655171484,11703.997556
1377136938,3872.0725247766673,11703.997556
1377137238,3797.947206922001,11703.997556
1377137538,3801.8485394406666,11703.997556
1377137838,3755.032549216667,11703.997556
1377138138,3756.983215476,11703.997556
1377138438,3727.723221586,11703.997556
1377138738,3751.131216698,11703.997556
1377139038,3753.081882957333,11703.997556
1377139338,3747.2298841793336,11703.997556
1377139638,3739.427219142,11703.997556
1377139938,3745.27921792,11703.997556
1377140238,3721.871222808,11703.997556
1377140538,3733.575220364,11703.997556
1377140838,3743.3285516606666,11703.997556
1377141138,3751.131216698,11703.997556
1377141438,3731.624554104667,11703.997556
1377141738,3795.996540662667,11703.997556
1377142038,3731.624554104667,11703.997556
1377142338,3772.588545550667,11703.997556
1377142638,3719.920556548667,11703.997556
1377142938,3753.081882957333,11703.997556
1377143238,3758.9338817353337,11703.997556
1377143538,3768.6872130320007,11703.997556
1377143838,3717.969890289333,11703.997556
1377144138,3710.167225252,11703.997556
1377144438,3731.624554104667,11703.997556
1377144738,3731.624554104667,11703.997556
1377145039,3743.3285516606666,11703.997556
1377145339,3741.3778854013335,11703.997556
1377145638,3753.081882957333,11703.997556
1377145938,3731.624554104667,11703.997556
1377146238,3794.045874403333,11703.997556
1377146538,3868.171192258,11703.997556
1377146838,3885.727188592,11703.997556
1377147138,3875.973857295333,11703.997556
1377147438,3862.31919348,11703.997556
1377147738,3885.727188592,11703.997556
1377148038,3872.0725247766673,11703.997556
1377148338,3879.875189814,11703.997556
1377148638,3971.5565040026654,11703.997556
1377148938,3872.0725247766673,11703.997556
1377149238,3885.727188592,11703.997556
1377149538,3874.023191036,11703.997556
1377149839,3862.31919348,11703.997556
1377150139,3862.31919348,11703.997556
1377150439,3885.727188592,11703.997556
1377150739,3856.4671947020006,11703.997556
1377151039,3860.368527220666,11703.997556
1377151339,3877.924523554667,11703.997556
1377151639,3874.023191036,11703.997556
1377151939,3889.628521110667,11703.997556
1377152239,3895.4805198886665,11703.997556
1377152539,3895.4805198886665,11703.997556
1377152839,3891.579187370001,11703.997556
1377153139,3893.529853629333,11703.997556
1377153439,3881.825856073333,11703.997556
1377153739,3901.332518666667,11703.997556
1377154039,5007.360287708666,11703.997556
1377154339,3895.4805198886665,11703.997556
1377154639,3881.825856073333,11703.997556
1377154939,3922.789847519333,11703.997556
1377155239,3864.269859739333,11703.997556
1377155539,3868.171192258,11703.997556
1377155839,3875.973857295333,11703.997556
1377156139,3885.727188592,11703.997556
1377156439,3879.875189814,11703.997556
1377156739,3887.677854851333,11703.997556
1377157039,3901.332518666667,11703.997556
1377157339,3926.691180038,11703.997556
1377157639,3891.579187370001,11703.997556
1377157939,3872.0725247766673,11703.997556
1377158239,3874.023191036,11703.997556
1377158539,3866.2205259986654,11703.997556
1377158839,3877.924523554667,11703.997556
1377159140,3862.31919348,11703.997556
1377159440,3872.0725247766673,11703.997556
1377159740,3864.269859739333,11703.997556
1377160040,3887.677854851333,11703.997556
1377160340,3874.023191036,11703.997556
1377160640,3930.5925125566673,11703.997556
1377160940,4648.437695991333,11703.997556
1377161240,4601.621705767333,11703.997556
1377161540,5988.545416153334,11703.997556
1377161840,5239.489572569334,11703.997556
1377162140,4026.175159264,11703.997556
1377162439,4162.721797417333,11703.997556
1377162739,4246.6004465686665,11703.997556
1377163039,4318.775098164,11703.997556
1377163339,4182.228460010667,11703.997556
1377163639,4135.412469786667,11703.997556
1377163939,4045.681821857333,11703.997556
1377164239,4041.7804893386665,11703.997556
1377164539,4035.9284905606673,11703.997556
1377164840,4892.270978408,11703.997556
1377165140,7496.410434617999,11703.997556
1377165440,6673.229273179334,11703.997556
1377165740,5900.765434483334,11703.997556
1377166040,7145.290507938001,11703.997556
1377166340,5422.852200946666,11703.997556
1377166640,3965.704505224666,11703.997556
1377166940,3989.1125003366674,11703.997556
1377167240,3963.753838965333,11703.997556
1377167540,3963.753838965333,11703.997556
1377167840,3975.457836521334,11703.997556
1377168140,3977.408502780667,11703.997556
1377168440,3967.655171484,11703.997556
1377168740,4047.632488116667,11703.997556
1377169040,3971.5565040026654,11703.997556
1377169340,3946.1978426313335,11703.997556
1377169640,3965.704505224666,11703.997556
1377169940,3950.099175150001,11703.997556
1377170240,3969.605837743333,11703.997556
1377170540,4195.883123826,11703.997556
1377170840,5801.281455257334,11703.997556
1377171140,4488.483062726,11703.997556
1377171440,4051.5338206353335,11703.997556
1377171740,4043.731155598,11703.997556
1377172041,4071.0404832286654,11703.997556
1377172341,4137.363136046,11703.997556
1377172641,4248.551112828,11703.997556
1377172941,4283.663105496001,11703.997556
1377173241,4024.224493004667,11703.997556
1377173541,4008.61916293,11703.997556
1377173841,4006.668496670667,11703.997556
1377174141,4076.892482006667,11703.997556
1377174441,4010.569829189333,11703.997556
1377174741,3998.865831633333,11703.997556
1377175041,4020.323160486,11703.997556
1377175341,4006.668496670667,11703.997556
1377175641,4002.767164152001,11703.997556
1377175941,4024.224493004667,11703.997556
1377176241,4012.520495448666,11703.997556
1377176541,4010.569829189333,11703.997556
1377176841,4014.471161708,11703.997556
1377177141,4059.336485672667,11703.997556
1377177441,3998.865831633333,11703.997556
1377177741,4063.2378181913336,11703.997556
1377178041,4024.224493004667,11703.997556
1377178341,3994.964499114667,11703.997556
1377178641,4000.816497892667,11703.997556
1377178941,3991.063166596,11703.997556
1377179241,4004.7178304113336,11703.997556
1377179541,3993.0138328553335,11703.997556
1377179841,4002.767164152001,11703.997556
1377180141,4008.61916293,11703.997556
1377180441,3994.964499114667,11703.997556
1377180741,4032.027158042,11703.997556
1377181041,4049.583154376,11703.997556
1377181341,4100.300477118667,11703.997556
1377181641,4053.484486894667,11703.997556
1377181941,4535.29905295,11703.997556
1377182241,4369.492420906668,11703.997556
1377182542,4348.035092054,11703.997556
1377182842,4437.765739983333,11703.997556
1377183142,4227.093783975333,11703.997556
1377183442,4755.7243402546665,11703.997556
1377183742,4324.627096942,11703.997556
1377184042,4303.169768089333,11703.997556
1377184342,4197.833790085334,11703.997556
1377184642,4184.17912627,11703.997556
1377184942,4207.587121382001,11703.997556
1377185242,4211.488453900667,11703.997556
1377185542,4076.892482006667,11703.997556
1377185842,4238.797781531333,11703.997556
1377186142,4229.044450234666,11703.997556
1377186442,4069.089816969333,11703.997556
1377186742,4710.85901629,11703.997556
1377187042,4902.024309704667,11703.997556
1377187342,4486.532396466667,11703.997556
1377187642,4195.883123826,11703.997556
1377187942,4018.372494226666,11703.997556
1377188242,4000.816497892667,11703.997556
1377188542,4000.816497892667,11703.997556
1377188842,4244.649780309333,11703.997556
1377189142,4348.035092054,11703.997556
1377189442,4402.653747315333,11703.997556
1377189742,4172.475128714,11703.997556
1377190042,4012.520495448666,11703.997556
1377190342,4098.349810859333,11703.997556
1377190643,4180.277793751334,11703.997556
1377190943,4069.089816969333,11703.997556
1377191243,4113.955140934,11703.997556
1377191543,4076.892482006667,11703.997556
1377191843,4067.13915071,11703.997556
1377192143,4067.13915071,11703.997556
1377192443,4127.609804749333,11703.997556
1377192743,4084.695147044,11703.997556
1377193043,4080.793814525334,11703.997556
1377193343,4076.892482006667,11703.997556
1377193643,4067.13915071,11703.997556
1377193943,4084.695147044,11703.997556
1377194243,4110.053808415334,11703.997556
1377194543,4071.0404832286654,11703.997556
1377194843,4090.547145822,11703.997556
1377195143,4080.793814525334,11703.997556
1377195443,4076.892482006667,11703.997556
1377195743,4082.744480784667,11703.997556
1377196043,4102.251143377999,11703.997556
1377196343,4074.941815747333,11703.997556
1377196643,4082.744480784667,11703.997556
1377196943,4074.941815747333,11703.997556
1377197243,4074.941815747333,11703.997556
1377197543,4067.13915071,11703.997556
1377197843,4100.300477118667,11703.997556
1377198143,4074.941815747333,11703.997556
1377198443,4088.596479562667,11703.997556
1377198743,4088.596479562667,11703.997556
1377199043,4082.744480784667,11703.997556
1377199343,4115.905807193333,11703.997556
1377199643,4022.273826745333,11703.997556
1377199943,4002.767164152001,11703.997556
1377200243,4016.421827967333,11703.997556
1377200543,4108.103142156,11703.997556
1377200843,4094.4484783406665,11703.997556
1377201143,4080.793814525334,11703.997556
1377201443,4112.004474674666,11703.997556
1377201743,4104.201809637333,11703.997556
1377202043,4094.4484783406665,11703.997556
1377202343,4088.596479562667,11703.997556
1377202643,4086.645813303333,11703.997556
1377202943,4096.3991446,11703.997556
1377203243,4108.103142156,11703.997556
1377203543,4102.251143377999,11703.997556
1377203844,4100.300477118667,11703.997556
1377204144,4099.059144044546,11703.997556
1377204444,4083.3947028711104,11703.997556
1377204744,4086.645813303333,11703.997556
1377205044,4113.955140934,11703.997556
1377205344,4106.152475896667,11703.997556
1377205644,4098.349810859333,11703.997556
1377205944,4094.4484783406665,11703.997556
1377206244,4028.125825523333,11703.997556
1377206844,4119.807139712,11703.997556
1377207144,4098.349810859333,11703.997556
1377208044,4098.349810859333,11703.997556
1377208344,4094.4484783406665,11703.997556
1377208644,4113.119141108571,11703.997556
1377208944,4098.349810859333,11703.997556
1377209245,4092.497812081334,11703.997556
1377209845,4082.744480784667,11703.997556
1377210145,4090.547145822,11703.997556
1377210445,4104.201809637333,11703.997556
1377210745,4094.4484783406665,11703.997556
1377211045,4084.695147044,11703.997556
1377211345,4088.596479562667,11703.997556
1377211645,4084.695147044,11703.997556
1377211945,4082.744480784667,11703.997556
1377212245,4104.201809637333,11703.997556
1377212545,4102.251143377999,11703.997556
1377212845,4092.497812081334,11703.997556
1377213145,4080.793814525334,11703.997556
1377213445,4088.596479562667,11703.997556
1377213745,4086.645813303333,11703.997556
1377214045,4100.300477118667,11703.997556
1377214345,4104.201809637333,11703.997556
1377214645,4090.547145822,11703.997556
1377214945,4080.793814525334,11703.997556
1377215245,4086.645813303333,11703.997556
1377215545,4094.4484783406665,11703.997556
1377215845,4090.547145822,11703.997556
1377216145,4100.300477118667,11703.997556
1377216445,4092.497812081334,11703.997556
1377216745,4088.596479562667,11703.997556
1377217045,4096.3991446,11703.997556
1377217345,4092.497812081334,11703.997556
1377217645,4102.251143377999,11703.997556
1377217945,4112.004474674666,11703.997556
1377218245,4080.793814525334,11703.997556
1377218545,4084.695147044,11703.997556
1377218845,4078.843148266,11703.997556
1377219145,4086.645813303333,11703.997556
1377219445,4078.843148266,11703.997556
1377219745,4102.251143377999,11703.997556
1377220045,4084.695147044,11703.997556
1377220345,4090.547145822,11703.997556
1377220646,4090.547145822,11703.997556
1377220946,4086.645813303333,11703.997556
1377221246,4086.645813303333,11703.997556
1377221546,4100.300477118667,11703.997556
1377221846,4106.152475896667,11703.997556
1377222146,4094.4484783406665,11703.997556
1377222446,4082.744480784667,11703.997556
1377222746,4088.596479562667,11703.997556
1377223046,4108.103142156,11703.997556
1377223346,4039.829823079333,11703.997556
1377223646,3985.211167818,11703.997556
1377223946,3948.148508890667,11703.997556
1377224246,3948.148508890667,11703.997556
1377224546,3950.099175150001,11703.997556
1377224846,3942.2965101126674,11703.997556
1377225146,3975.457836521334,11703.997556
1377225446,3963.753838965333,11703.997556
1377225746,3930.5925125566673,11703.997556
1377226046,3930.5925125566673,11703.997556
1377226346,3959.852506446667,11703.997556
1377226646,3971.5565040026654,11703.997556
1377226946,3952.049841409333,11703.997556
1377227246,3934.493845075333,11703.997556
1377227546,3938.395177594,11703.997556
1377227846,3944.247176372001,11703.997556
1377228146,3987.161834077333,11703.997556
1377228446,3983.2605015586655,11703.997556
1377228746,3952.049841409333,11703.997556
1377229046,3977.408502780667,11703.997556
1377229346,3926.691180038,11703.997556
1377229646,3961.803172706,11703.997556
1377229946,3950.099175150001,11703.997556
1377230246,3950.099175150001,11703.997556
1377230546,3961.803172706,11703.997556
1377230846,3946.1978426313335,11703.997556
1377231146,3936.444511334667,11703.997556
1377231446,3942.2965101126674,11703.997556
1377231746,3969.605837743333,11703.997556
1377232046,3987.161834077333,11703.997556
1377232346,3969.605837743333,11703.997556
1377232646,3913.036516222668,11703.997556
1377232946,4094.4484783406665,11703.997556
1377233246,4094.4484783406665,11703.997556
1377233547,4096.3991446,11703.997556
1377233847,4117.856473452667,11703.997556
1377234147,4131.511137267999,11703.997556
1377234447,4102.251143377999,11703.997556
1377234747,4088.596479562667,11703.997556
1377235047,4092.497812081334,11703.997556
1377235347,4096.3991446,11703.997556
1377235647,4106.152475896667,11703.997556
1377235947,4121.757805971334,11703.997556
1377236247,4106.152475896667,11703.997556
1377236547,4096.3991446,11703.997556
1377236847,4090.547145822,11703.997556
1377237147,4090.547145822,11703.997556
1377237447,4092.497812081334,11703.997556
1377237747,4129.560471008666,11703.997556
1377238047,4102.251143377999,11703.997556
1377238347,4094.4484783406665,11703.997556
1377238647,4096.3991446,11703.997556
1377238947,4096.3991446,11703.997556
1377239247,4092.497812081334,11703.997556
1377239547,4119.807139712,11703.997556
1377239847,4199.784456344667,11703.997556
1377240147,4098.349810859333,11703.997556
1377240447,4102.251143377999,11703.997556
1377240747,4092.497812081334,11703.997556
1377241047,4096.3991446,11703.997556
1377241347,4121.757805971334,11703.997556
1377241647,4115.905807193333,11703.997556
1377241947,4115.905807193333,11703.997556
1377242247,4162.721797417333,11703.997556
1377242547,4244.649780309333,11703.997556
1377242848,4248.551112828,11703.997556
1377243148,4149.0671336020005,11703.997556
1377243448,4326.577763201333,11703.997556
1377243748,4098.349810859333,11703.997556
1377244048,4658.191027288,11703.997556
1377244347,4287.564438014667,11703.997556
1377244647,4230.995116494,11703.997556
1377244947,4367.541754647333,11703.997556
1377245247,4055.435153154,11703.997556
1377245547,4032.027158042,11703.997556
1377245847,4035.9284905606673,11703.997556
1377246147,4982.001626337334,11703.997556
1377246447,4814.244328034667,11703.997556
1377246748,4133.461803527333,11703.997556
1377247048,4568.739045967143,11703.997556
1377247348,4517.743056616,11703.997556
1377247648,4535.29905295,11703.997556
1377247948,4816.194994294,11703.997556
1377248248,4388.9990835,11703.997556
1377248548,4470.927066392001,11703.997556
1377248848,5179.0189185300005,11703.997556
1377249148,4451.4204037986665,11703.997556
1377249448,4695.253686215333,11703.997556
1377249748,4619.177702101333,11703.997556
1377250048,4223.192451456667,11703.997556
1377250348,4035.9284905606673,11703.997556
1377250648,4072.9911494879993,11703.997556
1377250948,4041.7804893386665,11703.997556
1377251248,4149.0671336020005,11703.997556
1377251548,4669.895024844,11703.997556
1377251848,5262.897567681333,11703.997556
1377252148,4388.9990835,11703.997556
1377252448,4431.913741205333,11703.997556
1377252748,4213.43912016,11703.997556
1377253048,4133.461803527333,11703.997556
1377253348,4096.3991446,11703.997556
1377253648,4094.4484783406665,11703.997556
1377253948,4096.3991446,11703.997556
1377254248,4084.695147044,11703.997556
1377254548,4082.744480784667,11703.997556
1377254848,4071.0404832286654,11703.997556
1377255148,4121.757805971334,11703.997556
1377255448,4197.833790085334,11703.997556
1377255748,4127.609804749333,11703.997556
1377256048,4379.245752203333,11703.997556
1377256348,4184.17912627,11703.997556
1377256648,4248.551112828,11703.997556
1377256948,4351.936424572667,11703.997556
1377257249,4578.213710655334,11703.997556
1377257549,4205.636455122667,11703.997556
1377257849,4264.156442902668,11703.997556
1377258149,4076.892482006667,11703.997556
1377258449,4113.955140934,11703.997556
1377258749,4560.6577143213335,11703.997556
1377259049,4371.443087166,11703.997556
1377259349,4152.968466120667,11703.997556
1377259649,4402.653747315333,11703.997556
1377259949,4279.761772977333,11703.997556
1377260249,4338.281760757333,11703.997556
1377260549,4404.604413574667,11703.997556
1377260849,4174.425794973333,11703.997556
1377261149,4193.932457566667,11703.997556
1377261449,4223.192451456667,11703.997556
1377261749,4186.129792529334,11703.997556
1377262049,4266.107109162001,11703.997556
1377262349,4312.923099386,11703.997556
1377262649,4113.955140934,11703.997556
1377262949,4453.371070058,11703.997556
1377263249,4238.797781531333,11703.997556
1377263549,4258.304444124667,11703.997556
1377263849,4279.761772977333,11703.997556
1377264149,4250.5017790873335,11703.997556
1377264449,4377.295085944,11703.997556
1377264749,4693.303019956001,11703.997556
1377265049,4461.1737350953335,11703.997556
1377265349,4671.845691103334,11703.997556
1377265649,4970.2976287813335,11703.997556
1377265949,4574.312378136667,11703.997556
1377266249,5083.436271822666,11703.997556
1377266549,4974.1989613000005,11703.997556
1377266849,5091.238936860001,11703.997556
1377267149,4611.375037064,11703.997556
1377267449,4502.137726541334,11703.997556
1377267749,4568.460379358667,11703.997556
1377268049,4892.270978408,11703.997556
1377268349,4318.775098164,11703.997556
1377268649,4958.593631225333,11703.997556
1377268949,4604.269038547857,11703.997556
1377269249,4260.255110384,11703.997556
1377269549,4055.435153154,11703.997556
1377269849,4141.2644685646665,11703.997556
1377270149,4307.071100608,11703.997556
1377270449,4455.321736317333,11703.997556
1377270749,4221.241785197333,11703.997556
1377271049,4125.65913849,11703.997556
1377271349,4562.469047276429,11703.997556
1377271649,4152.968466120667,11703.997556
1377271950,4008.61916293,11703.997556
1377272250,3991.063166596,11703.997556
1377272550,4000.816497892667,11703.997556
1377272850,4037.87915682,11703.997556
1377273150,4170.524462454667,11703.997556
1377273450,4098.349810859333,11703.997556
1377273750,4071.0404832286654,11703.997556
1377274050,3993.0138328553335,11703.997556
1377274350,3979.35916904,11703.997556
1377274650,4008.61916293,11703.997556
1377274950,3996.915165374,11703.997556
1377275250,4010.569829189333,11703.997556
1377275550,4125.65913849,11703.997556
1377275850,4026.175159264,11703.997556
1377276150,4002.767164152001,11703.997556
1377276450,4041.7804893386665,11703.997556
1377276750,3998.865831633333,11703.997556
1377277050,4041.7804893386665,11703.997556
1377277350,4084.695147044,11703.997556
1377277650,4008.61916293,11703.997556
1377277950,4045.681821857333,11703.997556
1377278250,4000.816497892667,11703.997556
1377278550,4002.767164152001,11703.997556
1377278850,3991.063166596,11703.997556
1377279150,3987.161834077333,11703.997556
1377279450,3983.2605015586655,11703.997556
1377279750,3979.35916904,11703.997556
1377280050,4039.829823079333,11703.997556
1377280350,3993.0138328553335,11703.997556
1377280650,4022.273826745333,11703.997556
1377280950,4049.583154376,11703.997556
1377281250,3985.211167818,11703.997556
1377281551,3979.35916904,11703.997556
1377281851,3979.35916904,11703.997556
1377282151,4026.175159264,11703.997556
1377282451,3983.2605015586655,11703.997556
1377282751,4014.471161708,11703.997556
1377283051,4008.61916293,11703.997556
1377283351,3989.1125003366674,11703.997556
1377283651,3975.457836521334,11703.997556
1377283951,4032.027158042,11703.997556
1377284251,3996.915165374,11703.997556
1377284551,3991.063166596,11703.997556
1377284851,3985.211167818,11703.997556
1377285151,3983.2605015586655,11703.997556
1377285451,3979.35916904,11703.997556
1377285751,3989.1125003366674,11703.997556
1377286051,4010.569829189333,11703.997556
1377286351,4063.2378181913336,11703.997556
1377286651,4002.767164152001,11703.997556
1377286951,3987.161834077333,11703.997556
1377287251,4035.9284905606673,11703.997556
1377287551,3981.309835299333,11703.997556
1377287851,3977.408502780667,11703.997556
1377288151,4000.816497892667,11703.997556
1377288451,3985.211167818,11703.997556
1377288751,3983.2605015586655,11703.997556
1377289051,3977.408502780667,11703.997556
1377289351,3987.161834077333,11703.997556
1377289651,3979.35916904,11703.997556
1377289951,4002.767164152001,11703.997556
1377290251,4039.829823079333,11703.997556
1377290551,3993.0138328553335,11703.997556
1377290852,3985.211167818,11703.997556
1377291152,4006.668496670667,11703.997556
1377291452,4061.2871519320006,11703.997556
1377291752,4028.125825523333,11703.997556
1377292052,4008.61916293,11703.997556
1377292352,4060.869152019288,11703.997556
1377292652,4006.668496670667,11703.997556
1377292952,4037.87915682,11703.997556
1377293251,4047.632488116667,11703.997556
1377293551,4014.471161708,11703.997556
1377293851,3985.211167818,11703.997556
1377294151,4047.632488116667,11703.997556
1377294451,3981.309835299333,11703.997556
1377294751,3979.35916904,11703.997556
1377295051,3993.0138328553335,11703.997556
1377295352,3991.063166596,11703.997556
1377295652,3987.161834077333,11703.997556
1377295952,4061.2871519320006,11703.997556
1377296252,3987.161834077333,11703.997556
1377296552,3991.063166596,11703.997556
1377296852,3991.063166596,11703.997556
1377297152,3993.0138328553335,11703.997556
1377297452,3977.408502780667,11703.997556
1377297752,3979.35916904,11703.997556
1377298052,3987.161834077333,11703.997556
1377298352,3987.161834077333,11703.997556
1377298652,3994.964499114667,11703.997556
1377298952,3987.161834077333,11703.997556
1377299252,3983.2605015586655,11703.997556
1377299552,3977.408502780667,11703.997556
1377299852,4029.519158565714,11703.997556
1377300152,3981.309835299333,11703.997556
1377300452,4043.731155598,11703.997556
1377300752,4000.259164675714,11703.997556
1377301052,3985.211167818,11703.997556
1377301352,3977.408502780667,11703.997556
1377301652,3975.457836521334,11703.997556
1377301952,3977.408502780667,11703.997556
1377302252,3991.063166596,11703.997556
1377302552,3991.063166596,11703.997556
1377302852,3983.2605015586655,11703.997556
1377303152,4018.372494226666,11703.997556
1377303452,3969.605837743333,11703.997556
1377303752,3983.2605015586655,11703.997556
1377304052,3977.408502780667,11703.997556
1377304352,3989.1125003366674,11703.997556
1377304652,4020.323160486,11703.997556
1377304953,3977.269169476429,11703.997556
1377305253,4010.569829189333,11703.997556
1377305553,3977.408502780667,11703.997556
1377305853,4026.175159264,11703.997556
1377306153,3981.309835299333,11703.997556
1377306453,3979.35916904,11703.997556
1377306753,4012.520495448666,11703.997556
1377307053,3985.211167818,11703.997556
1377307353,3987.161834077333,11703.997556
1377307653,4020.323160486,11703.997556
1377307953,3979.35916904,11703.997556
1377308253,4037.87915682,11703.997556
1377308553,4002.767164152001,11703.997556
1377308853,3994.964499114667,11703.997556
1377309153,4002.767164152001,11703.997556
1377309453,3987.161834077333,11703.997556
1377309753,3961.803172706,11703.997556
1377310053,3954.0005076686666,11703.997556
1377310353,3952.049841409333,11703.997556
1377310653,3938.395177594,11703.997556
1377310953,3913.036516222668,11703.997556
1377311253,3952.049841409333,11703.997556
1377311553,3950.099175150001,11703.997556
1377311853,3969.605837743333,11703.997556
1377312153,3955.951173928,11703.997556
1377312453,3963.753838965333,11703.997556
1377312753,3905.233851185333,11703.997556
1377313053,3928.641846297333,11703.997556
1377313353,3950.099175150001,11703.997556
1377313653,3909.135183704,11703.997556
1377313953,3891.579187370001,11703.997556
1377314253,3913.036516222668,11703.997556
1377314553,3936.444511334667,11703.997556
1377314853,3957.9018401873327,11703.997556
1377315154,3940.345843853333,11703.997556
1377315454,3918.8885150006654,11703.997556
1377315754,3946.1978426313335,11703.997556
1377316054,3959.852506446667,11703.997556
1377316354,3952.049841409333,11703.997556
1377316654,3954.0005076686666,11703.997556
1377316954,3901.332518666667,11703.997556
1377317254,3932.543178816,11703.997556
1377317554,3959.852506446667,11703.997556
1377317854,3965.704505224666,11703.997556
1377318154,3940.345843853333,11703.997556
1377318454,3955.951173928,11703.997556
1377318754,3946.1978426313335,11703.997556
1377319054,3963.753838965333,11703.997556
1377319354,3952.049841409333,11703.997556
1377319654,3987.161834077333,11703.997556
1377319954,3973.507170262,11703.997556
1377320254,3985.211167818,11703.997556
1377320554,3977.408502780667,11703.997556
1377320854,3983.2605015586655,11703.997556
1377321154,3973.507170262,11703.997556
1377321454,3983.2605015586655,11703.997556
1377321754,3969.605837743333,11703.997556
1377322054,3989.1125003366674,11703.997556
1377322354,3975.457836521334,11703.997556
1377322655,4032.027158042,11703.997556
1377322955,3969.605837743333,11703.997556
1377323255,4041.7804893386665,11703.997556
1377323555,3983.2605015586655,11703.997556
1377323855,3991.063166596,11703.997556
1377324155,4035.9284905606673,11703.997556
1377324455,3996.915165374,11703.997556
1377324755,3979.35916904,11703.997556
1377325055,3979.35916904,11703.997556
1377325355,3979.35916904,11703.997556
1377325655,3975.457836521334,11703.997556
1377325955,3977.408502780667,11703.997556
1377326255,3983.2605015586655,11703.997556
1377326554,4020.323160486,11703.997556
1377326854,3969.605837743333,11703.997556
1377327154,3977.408502780667,11703.997556
1377327454,3975.457836521334,11703.997556
1377327755,3975.457836521334,11703.997556
1377328055,3975.457836521334,11703.997556
1377328355,3967.655171484,11703.997556
1377328655,3969.605837743333,11703.997556
1377328955,4039.829823079333,11703.997556
1377329255,4037.87915682,11703.997556
1377329555,3975.457836521334,11703.997556
1377329855,4016.421827967333,11703.997556
1377330155,3994.964499114667,11703.997556
1377330455,3971.5565040026654,11703.997556
1377330755,3981.309835299333,11703.997556
1377331055,3973.507170262,11703.997556
1377331355,3971.5565040026654,11703.997556
1377331655,4022.273826745333,11703.997556
1377331955,3969.605837743333,11703.997556
1377332255,3973.507170262,11703.997556
1377332555,3973.507170262,11703.997556
1377332855,4012.520495448666,11703.997556
1377333155,3973.507170262,11703.997556
1377333455,3967.655171484,11703.997556
1377333755,3967.655171484,11703.997556
1377334055,3973.507170262,11703.997556
1377334355,3973.507170262,11703.997556
1377334655,3971.5565040026654,11703.997556
1377334955,3991.063166596,11703.997556
1377335255,3973.507170262,11703.997556
1377335555,3959.852506446667,11703.997556
1377335855,3973.507170262,11703.997556
1377336155,3969.605837743333,11703.997556
1377336455,4026.175159264,11703.997556
1377336755,3987.161834077333,11703.997556
1377337055,3979.35916904,11703.997556
1377337355,3967.655171484,11703.997556
1377337655,3971.5565040026654,11703.997556
1377337955,4026.175159264,11703.997556
1377338255,3981.309835299333,11703.997556
1377338555,3969.605837743333,11703.997556
1377338855,3967.655171484,11703.997556
1377339156,3971.5565040026654,11703.997556
1377339456,3967.655171484,11703.997556
1377339756,3971.5565040026654,11703.997556
1377340056,3979.35916904,11703.997556
1377340356,3975.457836521334,11703.997556
1377340656,3973.507170262,11703.997556
1377340956,4022.273826745333,11703.997556
1377341256,3971.5565040026654,11703.997556
1377341556,4020.323160486,11703.997556
1377341856,3977.408502780667,11703.997556
1377342156,4061.2871519320006,11703.997556
1377342456,3977.408502780667,11703.997556
1377342756,3975.457836521334,11703.997556
1377343056,3969.605837743333,11703.997556
1377343356,3977.408502780667,11703.997556
1377343656,3975.457836521334,11703.997556
1377343956,3969.605837743333,11703.997556
1377344256,3973.507170262,11703.997556
1377344556,3963.753838965333,11703.997556
1377344856,3985.211167818,11703.997556
1377345156,3975.457836521334,11703.997556
1377345456,3965.704505224666,11703.997556
1377345756,3959.852506446667,11703.997556
1377346056,3977.408502780667,11703.997556
1377346356,3977.408502780667,11703.997556
1377346656,3973.507170262,11703.997556
1377346956,3973.507170262,11703.997556
1377347256,3967.655171484,11703.997556
1377347556,3963.753838965333,11703.997556
1377347856,3977.408502780667,11703.997556
1377348156,3975.457836521334,11703.997556
1377348456,3975.457836521334,11703.997556
1377348757,3967.655171484,11703.997556
1377349057,3955.951173928,11703.997556
1377349357,3963.753838965333,11703.997556
1377349657,3965.704505224666,11703.997556
1377349957,3967.655171484,11703.997556
1377350257,3971.5565040026654,11703.997556
1377350557,3965.704505224666,11703.997556
1377350857,3967.655171484,11703.997556
1377351157,3977.408502780667,11703.997556
1377351457,3959.852506446667,11703.997556
1377351757,3975.457836521334,11703.997556
1377352057,3965.704505224666,11703.997556
1377352357,3957.9018401873327,11703.997556
1377352657,3969.605837743333,11703.997556
1377352957,3965.704505224666,11703.997556
1377353257,3961.803172706,11703.997556
1377353557,3973.507170262,11703.997556
1377353857,3973.507170262,11703.997556
1377354157,3969.605837743333,11703.997556
1377354457,3963.753838965333,11703.997556
1377354757,3965.704505224666,11703.997556
1377355057,3961.803172706,11703.997556
1377355357,3967.655171484,11703.997556
1377355657,3971.5565040026654,11703.997556
1377355957,4035.9284905606673,11703.997556
1377356257,4022.273826745333,11703.997556
1377356557,3975.457836521334,11703.997556
1377356857,3967.655171484,11703.997556
1377357157,3961.803172706,11703.997556
1377357457,3973.507170262,11703.997556
1377357757,3975.457836521334,11703.997556
1377358057,3975.457836521334,11703.997556
1377358357,3971.5565040026654,11703.997556
1377358658,3959.852506446667,11703.997556
1377358957,4020.323160486,11703.997556
1377359257,3971.5565040026654,11703.997556
1377359557,3993.0138328553335,11703.997556
1377359857,4022.273826745333,11703.997556
1377360157,3967.655171484,11703.997556
1377360457,3991.063166596,11703.997556
1377360757,3985.211167818,11703.997556
1377361057,4033.977824301334,11703.997556
1377361357,3994.964499114667,11703.997556
1377361657,3989.1125003366674,11703.997556
1377361957,3989.1125003366674,11703.997556
1377362257,3969.605837743333,11703.997556
1377362557,4014.471161708,11703.997556
1377362857,3965.704505224666,11703.997556
1377363157,4016.421827967333,11703.997556
1377363457,3975.457836521334,11703.997556
1377363757,3979.35916904,11703.997556
1377364057,3985.211167818,11703.997556
1377364357,3979.35916904,11703.997556
1377364657,3983.2605015586655,11703.997556
1377364957,3979.35916904,11703.997556
1377365257,3987.161834077333,11703.997556
1377365558,3989.1125003366674,11703.997556
1377365858,3985.211167818,11703.997556
1377366158,3979.35916904,11703.997556
1377366458,3993.0138328553335,11703.997556
1377366758,3989.1125003366674,11703.997556
1377367058,4026.175159264,11703.997556
1377367358,3983.2605015586655,11703.997556
1377367658,4000.816497892667,11703.997556
1377367958,3967.655171484,11703.997556
1377368258,3969.605837743333,11703.997556
1377368558,3961.803172706,11703.997556
1377368858,3996.915165374,11703.997556
1377369158,3963.753838965333,11703.997556
1377369458,3973.507170262,11703.997556
1377369758,4018.372494226666,11703.997556
1377370058,3977.408502780667,11703.997556
1377370358,3971.5565040026654,11703.997556
1377370658,3985.211167818,11703.997556
1377370958,3975.457836521334,11703.997556
1377371258,3977.408502780667,11703.997556
1377371558,3965.704505224666,11703.997556
1377371858,3961.803172706,11703.997556
1377372158,4020.323160486,11703.997556
1377372458,3989.1125003366674,11703.997556
1377372758,3977.408502780667,11703.997556
1377373058,3973.507170262,11703.997556
1377373358,3961.803172706,11703.997556
1377373658,3979.35916904,11703.997556
1377373958,3969.605837743333,11703.997556
1377374259,3996.915165374,11703.997556
1377374559,3971.5565040026654,11703.997556
1377374859,3977.408502780667,11703.997556
1377375159,3969.605837743333,11703.997556
1377375459,3983.2605015586655,11703.997556
1377375759,3977.408502780667,11703.997556
1377376059,3983.2605015586655,11703.997556
1377376359,3967.655171484,11703.997556
1377376659,3952.049841409333,11703.997556
1377376959,3957.9018401873327,11703.997556
1377377259,3979.35916904,11703.997556
1377377559,3979.35916904,11703.997556
1377377859,3987.161834077333,11703.997556
1377378159,3983.2605015586655,11703.997556
1377378459,3989.1125003366674,11703.997556
1377378759,3975.457836521334,11703.997556
1377379059,3957.9018401873327,11703.997556
1377379359,3977.408502780667,11703.997556
1377379659,3973.507170262,11703.997556
1377379959,3963.753838965333,11703.997556
1377380259,3961.803172706,11703.997556
1377380559,3963.753838965333,11703.997556
1377380859,3969.605837743333,11703.997556
1377381159,3969.605837743333,11703.997556
1377381459,4002.767164152001,11703.997556
1377381759,3973.507170262,11703.997556
1377382059,3973.507170262,11703.997556
1377382359,3967.655171484,11703.997556
1377382659,3965.704505224666,11703.997556
1377382959,3955.951173928,11703.997556
1377383259,3989.1125003366674,11703.997556
1377383559,3973.507170262,11703.997556
1377383859,3996.915165374,11703.997556
1377384159,3996.915165374,11703.997556
1377384459,3979.35916904,11703.997556
1377384759,3981.309835299333,11703.997556
1377385059,3998.865831633333,11703.997556
1377385360,3975.457836521334,11703.997556
1377385660,3983.2605015586655,11703.997556
1377385960,3977.408502780667,11703.997556
1377386260,3973.507170262,11703.997556
1377386560,4051.5338206353335,11703.997556
1377386860,3996.915165374,11703.997556
1377387160,3979.35916904,11703.997556
1377387460,3979.35916904,11703.997556
1377387760,3975.457836521334,11703.997556
1377388060,3979.35916904,11703.997556
1377388360,3989.1125003366674,11703.997556
1377388660,3989.1125003366674,11703.997556
1377388960,3979.35916904,11703.997556
1377389260,3985.211167818,11703.997556
1377389560,3977.408502780667,11703.997556
1377389860,3979.35916904,11703.997556
1377390160,3991.063166596,11703.997556
1377390460,4004.7178304113336,11703.997556
1377390760,3981.309835299333,11703.997556
1377391060,3977.408502780667,11703.997556
1377391360,3975.457836521334,11703.997556
1377391660,3977.408502780667,11703.997556
1377391961,3991.063166596,11703.997556
1377392261,3991.063166596,11703.997556
1377392561,3979.35916904,11703.997556
1377392861,3985.211167818,11703.997556
1377393161,3979.35916904,11703.997556
1377393461,3985.211167818,11703.997556
1377393761,3998.865831633333,11703.997556
1377394061,3991.063166596,11703.997556
1377394361,3979.35916904,11703.997556
1377394661,3981.309835299333,11703.997556
1377394961,3981.309835299333,11703.997556
1377395261,3977.408502780667,11703.997556
1377395561,3977.408502780667,11703.997556
1377395861,4016.421827967333,11703.997556
1377396161,3952.049841409333,11703.997556
1377396461,3940.345843853333,11703.997556
1377396761,3932.543178816,11703.997556
1377397061,3930.5925125566673,11703.997556
1377397361,3952.049841409333,11703.997556
1377397661,3895.4805198886665,11703.997556
1377397961,3955.951173928,11703.997556
1377398261,3957.9018401873327,11703.997556
1377398561,3926.691180038,11703.997556
1377398861,3946.1978426313335,11703.997556
1377399161,3916.9378487413337,11703.997556
1377399461,3922.789847519333,11703.997556
1377399761,3940.345843853333,11703.997556
1377400061,3895.4805198886665,11703.997556
1377400362,3924.7405137786654,11703.997556
1377400662,3926.691180038,11703.997556
1377400962,3893.529853629333,11703.997556
1377401262,3911.0858499633327,11703.997556
1377401562,3985.211167818,11703.997556
1377401862,3914.987182482,11703.997556
1377402162,3918.8885150006654,11703.997556
1377402462,3926.691180038,11703.997556
1377402762,3957.9018401873327,11703.997556
1377403062,3938.395177594,11703.997556
1377403362,3946.1978426313335,11703.997556
1377403662,3950.099175150001,11703.997556
1377403962,3967.655171484,11703.997556
1377404262,3948.148508890667,11703.997556
1377404562,3946.1978426313335,11703.997556
1377404862,3914.987182482,11703.997556
1377405162,3918.8885150006654,11703.997556
1377405462,3905.233851185333,11703.997556
1377405762,3963.753838965333,11703.997556
1377406062,3975.457836521334,11703.997556
1377406362,3993.0138328553335,11703.997556
1377406662,3994.964499114667,11703.997556
1377406962,3983.2605015586655,11703.997556
1377407262,3983.2605015586655,11703.997556
1377407562,3987.161834077333,11703.997556
1377407862,4024.224493004667,11703.997556
1377408162,3985.211167818,11703.997556
1377408462,3977.408502780667,11703.997556
1377408762,4016.421827967333,11703.997556
1377409062,3965.704505224666,11703.997556
1377409362,3973.507170262,11703.997556
1377409662,3977.408502780667,11703.997556
1377409962,3985.211167818,11703.997556
1377410262,3989.1125003366674,11703.997556
1377410562,3965.704505224666,11703.997556
1377410862,3983.2605015586655,11703.997556
1377411162,3969.605837743333,11703.997556
1377411462,4022.273826745333,11703.997556
1377411763,3991.063166596,11703.997556
1377412063,4020.323160486,11703.997556
1377412363,3975.457836521334,11703.997556
1377412663,3973.507170262,11703.997556
1377412963,3971.5565040026654,11703.997556
1377413263,3977.408502780667,11703.997556
1377413563,3987.161834077333,11703.997556
1377413863,4035.9284905606673,11703.997556
1377414163,3971.5565040026654,11703.997556
1377414463,4026.175159264,11703.997556
1377414763,3971.5565040026654,11703.997556
1377415063,3963.753838965333,11703.997556
1377415363,3985.211167818,11703.997556
1377415663,3985.211167818,11703.997556
1377415963,3973.507170262,11703.997556
1377416263,3971.5565040026654,11703.997556
1377416563,3973.507170262,11703.997556
1377416863,3973.507170262,11703.997556
1377417163,3979.35916904,11703.997556
1377417463,3991.063166596,11703.997556
1377417763,3975.457836521334,11703.997556
1377418063,3981.309835299333,11703.997556
1377418363,3973.507170262,11703.997556
1377418663,3967.655171484,11703.997556
1377418963,3977.408502780667,11703.997556
1377419263,3991.063166596,11703.997556
1377419564,3963.753838965333,11703.997556
1377419864,3975.457836521334,11703.997556
1377420164,3969.605837743333,11703.997556
1377420464,3965.704505224666,11703.997556
1377420764,3961.803172706,11703.997556
1377421064,3991.063166596,11703.997556
1377421364,3971.5565040026654,11703.997556
1377421664,3967.655171484,11703.997556
1377421964,3973.507170262,11703.997556
1377422264,3979.35916904,11703.997556
1377422564,3975.457836521334,11703.997556
1377422864,3975.457836521334,11703.997556
1377423164,3975.457836521334,11703.997556
1377423464,3971.5565040026654,11703.997556
1377424064,3967.655171484,11703.997556
1377424364,3971.5565040026654,11703.997556
1377424663,4000.816497892667,11703.997556
1377424963,3973.507170262,11703.997556
1377425263,3987.161834077333,11703.997556
1377425563,3971.5565040026654,11703.997556
1377425863,3977.408502780667,11703.997556
1377426163,3985.211167818,11703.997556
1377426463,4018.372494226666,11703.997556
1377426763,3989.1125003366674,11703.997556
1377427063,3991.063166596,11703.997556
1377427363,3975.457836521334,11703.997556
1377427663,3973.507170262,11703.997556
1377427963,3973.507170262,11703.997556
1377428263,3989.1125003366674,11703.997556
1377428563,3971.5565040026654,11703.997556
1377428863,3981.309835299333,11703.997556
1377429163,3991.063166596,11703.997556
1377429463,3977.408502780667,11703.997556
1377429763,3983.2605015586655,11703.997556
1377430063,3994.964499114667,11703.997556
1377430363,3973.507170262,11703.997556
1377430664,3977.408502780667,11703.997556
1377430964,3971.5565040026654,11703.997556
1377431264,3973.507170262,11703.997556
1377431564,3975.457836521334,11703.997556
1377431864,4012.520495448666,11703.997556
1377432164,3975.457836521334,11703.997556
1377432464,3977.408502780667,11703.997556
1377432764,3971.5565040026654,11703.997556
1377433064,3971.5565040026654,11703.997556
1377433364,4004.7178304113336,11703.997556
1377433664,4018.372494226666,11703.997556
1377433964,3977.408502780667,11703.997556
1377434264,3975.457836521334,11703.997556
1377434564,4014.471161708,11703.997556
1377434864,3971.5565040026654,11703.997556
1377435164,3973.507170262,11703.997556
1377435464,3991.063166596,11703.997556
1377435764,3967.655171484,11703.997556
1377436064,3977.408502780667,11703.997556
1377436364,3961.803172706,11703.997556
1377436664,3963.753838965333,11703.997556
1377436964,3975.457836521334,11703.997556
1377437264,3993.0138328553335,11703.997556
1377437564,3971.5565040026654,11703.997556
1377437864,3963.753838965333,11703.997556
1377438164,3963.753838965333,11703.997556
1377438464,4010.569829189333,11703.997556
1377438764,3979.35916904,11703.997556
1377439064,3967.655171484,11703.997556
1377439364,3952.049841409333,11703.997556
1377439664,3975.457836521334,11703.997556
1377439964,3969.605837743333,11703.997556
1377440264,3987.161834077333,11703.997556
1377440564,3979.35916904,11703.997556
1377440864,4047.632488116667,11703.997556
1377441164,3965.704505224666,11703.997556
1377441464,3967.655171484,11703.997556
1377441764,3967.655171484,11703.997556
1377442064,3991.063166596,11703.997556
1377442364,3987.161834077333,11703.997556
1377442665,4002.767164152001,11703.997556
1377442965,3994.964499114667,11703.997556
1377443265,3989.1125003366674,11703.997556
1377443565,3996.915165374,11703.997556
1377443865,3996.915165374,11703.997556
1377444165,3989.1125003366674,11703.997556
1377444465,4020.323160486,11703.997556
1377444765,3991.063166596,11703.997556
1377445065,3987.161834077333,11703.997556
1377445365,4037.87915682,11703.997556
1377445665,3985.211167818,11703.997556
1377445965,3987.161834077333,11703.997556
1377446265,4002.767164152001,11703.997556
1377446565,3973.507170262,11703.997556
1377446865,3975.457836521334,11703.997556
1377447165,3963.753838965333,11703.997556
1377447465,3973.507170262,11703.997556
1377447765,3991.063166596,11703.997556
1377448065,3991.063166596,11703.997556
1377448365,3969.605837743333,11703.997556
1377448665,4004.7178304113336,11703.997556
1377448965,3989.1125003366674,11703.997556
1377449265,3979.35916904,11703.997556
1377449565,3975.457836521334,11703.997556
1377449865,3994.964499114667,11703.997556
1377450165,3975.457836521334,11703.997556
1377450465,3983.2605015586655,11703.997556
1377450765,3981.309835299333,11703.997556
1377451065,3991.063166596,11703.997556
1377451365,3977.408502780667,11703.997556
1377451665,3993.0138328553335,11703.997556
1377451965,4074.941815747333,11703.997556
1377452265,3987.161834077333,11703.997556
1377452566,3985.211167818,11703.997556
1377452866,3989.1125003366674,11703.997556
1377453166,3979.35916904,11703.997556
1377453466,3991.063166596,11703.997556
1377453766,3961.803172706,11703.997556
1377454066,3961.803172706,11703.997556
1377454366,3969.605837743333,11703.997556
1377454666,3973.507170262,11703.997556
1377454966,3977.408502780667,11703.997556
1377455266,4035.9284905606673,11703.997556
1377455566,3967.655171484,11703.997556
1377455866,3969.605837743333,11703.997556
1377456166,3973.507170262,11703.997556
1377456466,3967.655171484,11703.997556
1377456766,4033.977824301334,11703.997556
1377457066,3985.211167818,11703.997556
1377457366,3977.408502780667,11703.997556
1377457666,3979.35916904,11703.997556
1377457966,3975.457836521334,11703.997556
1377458266,3971.5565040026654,11703.997556
1377458566,3975.457836521334,11703.997556
1377458866,4028.125825523333,11703.997556
1377459166,3977.408502780667,11703.997556
1377459466,3975.457836521334,11703.997556
1377459766,3973.507170262,11703.997556
1377460066,3977.408502780667,11703.997556
1377460366,3975.457836521334,11703.997556
1377460666,4039.829823079333,11703.997556
1377460966,4022.273826745333,11703.997556
1377461266,3967.655171484,11703.997556
1377461566,4069.089816969333,11703.997556
1377461866,3975.457836521334,11703.997556
1377462166,3983.2605015586655,11703.997556
1377462466,3985.211167818,11703.997556
1377462766,4022.273826745333,11703.997556
1377463066,3981.309835299333,11703.997556
1377463366,3981.309835299333,11703.997556
1377463666,3979.35916904,11703.997556
1377463966,3989.1125003366674,11703.997556
1377464266,3987.161834077333,11703.997556
1377464566,3987.161834077333,11703.997556
1377464866,3977.408502780667,11703.997556
1377465167,3977.408502780667,11703.997556
1377465467,3975.457836521334,11703.997556
1377465767,3991.063166596,11703.997556
1377466067,3987.161834077333,11703.997556
1377466367,3975.457836521334,11703.997556
1377466667,3979.35916904,11703.997556
1377466967,3977.408502780667,11703.997556
1377467267,3979.35916904,11703.997556
1377467567,3979.35916904,11703.997556
1377467867,3975.457836521334,11703.997556
1377468167,3971.5565040026654,11703.997556
1377468467,3983.2605015586655,11703.997556
1377468767,3985.211167818,11703.997556
1377469067,3979.35916904,11703.997556
1377469367,3991.063166596,11703.997556
1377469667,3991.063166596,11703.997556
1377469967,3975.457836521334,11703.997556
1377470267,3979.35916904,11703.997556
1377470567,4030.076491782667,11703.997556
1377470867,3979.35916904,11703.997556
1377471167,4033.977824301334,11703.997556
1377471467,4000.816497892667,11703.997556
1377471767,3979.35916904,11703.997556
1377472067,3989.1125003366674,11703.997556
1377472367,3979.35916904,11703.997556
1377472667,4022.273826745333,11703.997556
1377472967,3977.408502780667,11703.997556
1377473267,4049.583154376,11703.997556
1377473567,3979.35916904,11703.997556
1377473867,3977.408502780667,11703.997556
1377474167,3979.35916904,11703.997556
1377474467,3979.35916904,11703.997556
1377474767,3973.507170262,11703.997556
1377475067,4000.816497892667,11703.997556
1377475367,3977.408502780667,11703.997556
1377475667,3983.2605015586655,11703.997556
1377475967,3977.408502780667,11703.997556
1377476267,3975.457836521334,11703.997556
1377476567,3975.457836521334,11703.997556
1377476867,3983.2605015586655,11703.997556
1377477168,3998.865831633333,11703.997556
1377477468,3977.408502780667,11703.997556
1377477768,3985.211167818,11703.997556
1377478068,3987.161834077333,11703.997556
1377478368,3981.309835299333,11703.997556
1377478668,4000.816497892667,11703.997556
1377478968,3977.408502780667,11703.997556
1377479268,3989.1125003366674,11703.997556
1377479568,3989.1125003366674,11703.997556
1377479868,3973.507170262,11703.997556
1377480168,3977.408502780667,11703.997556
1377480468,3985.211167818,11703.997556
1377480768,3991.063166596,11703.997556
1377481068,3977.408502780667,11703.997556
1377481368,3981.309835299333,11703.997556
1377481668,3977.408502780667,11703.997556
1377481968,3979.35916904,11703.997556
1377482268,3989.1125003366674,11703.997556
1377482568,3950.099175150001,11703.997556
1377482868,3938.395177594,11703.997556
1377483168,3948.148508890667,11703.997556
1377483468,3954.0005076686666,11703.997556
1377483768,3938.395177594,11703.997556
1377484068,3946.1978426313335,11703.997556
1377484368,3899.381852407333,11703.997556
1377484668,3936.444511334667,11703.997556
1377484968,3946.1978426313335,11703.997556
1377485268,3942.2965101126674,11703.997556
1377485568,3930.5925125566673,11703.997556
1377485868,3922.789847519333,11703.997556
1377486168,3885.727188592,11703.997556
1377486468,3930.5925125566673,11703.997556
1377486768,3971.5565040026654,11703.997556
1377487068,3916.9378487413337,11703.997556
1377487368,3950.099175150001,11703.997556
1377487668,3932.543178816,11703.997556
1377487968,3909.135183704,11703.997556
1377488269,3907.184517444666,11703.997556
1377488569,3905.233851185333,11703.997556
1377488869,3930.5925125566673,11703.997556
1377489169,3975.457836521334,11703.997556
1377489469,3944.247176372001,11703.997556
1377489769,3911.0858499633327,11703.997556
1377490068,3932.543178816,11703.997556
1377490368,3957.9018401873327,11703.997556
1377490668,3934.493845075333,11703.997556
1377490968,3940.345843853333,11703.997556
1377491268,3971.5565040026654,11703.997556
1377491568,3965.704505224666,11703.997556
1377491868,3942.2965101126674,11703.997556
1377492168,3973.507170262,11703.997556
1377492468,3924.7405137786654,11703.997556
1377492768,3946.1978426313335,11703.997556
1377493068,3973.507170262,11703.997556
1377493368,4018.372494226666,11703.997556
1377493668,3987.161834077333,11703.997556
1377493968,3983.2605015586655,11703.997556
1377494268,3969.605837743333,11703.997556
1377494569,3971.5565040026654,11703.997556
1377494869,3971.5565040026654,11703.997556
1377495169,4004.7178304113336,11703.997556
1377495469,4028.125825523333,11703.997556
1377495769,3981.309835299333,11703.997556
1377496069,3977.408502780667,11703.997556
1377496369,3963.753838965333,11703.997556
1377496669,3971.5565040026654,11703.997556
1377496969,3987.161834077333,11703.997556
1377497269,3985.211167818,11703.997556
1377497569,3979.35916904,11703.997556
1377497869,3971.5565040026654,11703.997556
1377498169,4030.076491782667,11703.997556
1377498469,4067.13915071,11703.997556
1377498769,4002.767164152001,11703.997556
1377499069,3983.2605015586655,11703.997556
1377499369,3977.408502780667,11703.997556
1377499669,3977.408502780667,11703.997556
1377499969,3977.408502780667,11703.997556
1377500269,3979.35916904,11703.997556
1377500569,4002.767164152001,11703.997556
1377500869,3985.211167818,11703.997556
1377501169,3979.35916904,11703.997556
1377501470,4131.511137267999,11703.997556
1377501770,4125.65913849,11703.997556
1377502070,4113.955140934,11703.997556
1377502370,4147.116467342667,11703.997556
1377502670,4125.65913849,11703.997556
1377502970,4708.908350030667,11703.997556
1377503270,4088.596479562667,11703.997556
1377503570,4209.537787641333,11703.997556
1377503870,4074.941815747333,11703.997556
1377504170,4043.731155598,11703.997556
1377504470,4016.421827967333,11703.997556
1377504770,3981.309835299333,11703.997556
1377505070,4006.668496670667,11703.997556
1377505370,4053.484486894667,11703.997556
1377505670,4131.511137267999,11703.997556
1377505970,4039.829823079333,11703.997556
1377506270,4172.475128714,11703.997556
1377506570,4445.568405020667,11703.997556
1377506870,4307.071100608,11703.997556
1377507170,4094.4484783406665,11703.997556
1377507470,4008.61916293,11703.997556
1377507770,4152.968466120667,11703.997556
1377508070,4145.1658010833335,11703.997556
1377508370,4137.363136046,11703.997556
1377508670,4355.8377570913335,11703.997556
1377508970,4459.2230688360005,11703.997556
1377509270,4353.8870908320005,11703.997556
1377509570,4402.653747315333,11703.997556
1377509870,4295.367103052,11703.997556
1377510170,4211.488453900667,11703.997556
1377510470,4100.300477118667,11703.997556
1377510771,4104.201809637333,11703.997556
1377511071,4102.251143377999,11703.997556
1377511371,4145.1658010833335,11703.997556
1377511671,4176.376461232667,11703.997556
1377511971,4115.905807193333,11703.997556
1377512271,4141.2644685646665,11703.997556
1377512571,4137.363136046,11703.997556
1377512871,4145.1658010833335,11703.997556
1377513171,4246.6004465686665,11703.997556
1377513471,4252.452445346667,11703.997556
1377513771,4139.313802305333,11703.997556
1377514071,4264.156442902668,11703.997556
1377515571,4193.932457566667,11703.997556
1377515871,4149.0671336020005,11703.997556
1377516171,4160.771131158,11703.997556
1377516471,4191.981791307333,11703.997556
1377516771,4225.143117716,11703.997556
1377517071,4115.905807193333,11703.997556
1377517371,4170.524462454667,11703.997556
1377517671,4219.291118937999,11703.997556
1377517971,4285.613771755333,11703.997556
1377518271,5249.242903866001,11703.997556
1377518571,4521.644389134667,11703.997556
1377518871,4121.757805971334,11703.997556
1377519171,4125.65913849,11703.997556
1377519472,4160.771131158,11703.997556
1377519772,4057.385819413333,11703.997556
1377520072,4026.175159264,11703.997556
1377520372,3993.0138328553335,11703.997556
1377520672,4032.027158042,11703.997556
1377520972,4018.372494226666,11703.997556
1377521272,4115.905807193333,11703.997556
1377521572,4055.435153154,11703.997556
1377521872,4112.004474674666,11703.997556
1377522172,4156.869798639334,11703.997556
1377522472,4256.3537778653335,11703.997556
1377522771,4176.376461232667,11703.997556
1377523071,4197.833790085334,11703.997556
1377523371,4063.2378181913336,11703.997556
1377523671,4387.048417240667,11703.997556
1377523971,4307.071100608,11703.997556
1377524271,4151.0177998613335,11703.997556
1377524571,4033.6991576928576,11703.997556
1377524871,4008.61916293,11703.997556
1377525171,3977.408502780667,11703.997556
1377525471,4033.977824301334,11703.997556
1377525771,4219.291118937999,11703.997556
1377526071,4303.169768089333,11703.997556
1377526371,4236.847115272,11703.997556
1377526671,4266.107109162001,11703.997556
1377526971,4088.596479562667,11703.997556
1377527271,4071.0404832286654,11703.997556
1377527571,4123.708472230666,11703.997556
1377527871,4260.255110384,11703.997556
1377528171,4256.3537778653335,11703.997556
1377528472,4253.149111867857,11703.997556
1377528772,4381.196418462668,11703.997556
1377529072,4387.048417240667,11703.997556
1377529372,4152.829132816429,11703.997556
1377529672,4136.109136307857,11703.997556
1377529972,4252.452445346667,11703.997556
1377530272,4320.725764423333,11703.997556
1377530572,4110.053808415334,11703.997556
1377530872,4051.5338206353335,11703.997556
1377531172,4069.089816969333,11703.997556
1377531472,4049.583154376,11703.997556
1377531772,4022.273826745333,11703.997556
1377532072,4008.61916293,11703.997556
1377532372,3998.169165112143,11703.997556
1377532672,4030.076491782667,11703.997556
1377532972,3983.2605015586655,11703.997556
1377533272,3993.0138328553335,11703.997556
1377533572,4041.7804893386665,11703.997556
1377533872,4000.816497892667,11703.997556
1377534172,3996.915165374,11703.997556
1377534472,4004.7178304113336,11703.997556
1377534772,3996.915165374,11703.997556
1377535072,4047.632488116667,11703.997556
1377535372,4032.027158042,11703.997556
1377535672,3985.211167818,11703.997556
1377535972,3971.5565040026654,11703.997556
1377536272,4020.323160486,11703.997556
1377536572,4033.977824301334,11703.997556
1377536872,4012.520495448666,11703.997556
1377537172,3998.865831633333,11703.997556
1377537472,3987.161834077333,11703.997556
1377537772,3971.5565040026654,11703.997556
1377538072,4033.977824301334,11703.997556
1377538372,3987.161834077333,11703.997556
1377538672,3998.169165112143,11703.997556
1377538972,3979.35916904,11703.997556
1377539272,3991.063166596,11703.997556
1377539572,3979.35916904,11703.997556
1377539873,3993.989165985,11703.997556
1377540173,3987.161834077333,11703.997556
1377540473,4032.027158042,11703.997556
1377540773,3983.2605015586655,11703.997556
1377541073,4018.372494226666,11703.997556
1377541373,3989.1125003366674,11703.997556
1377541673,3987.161834077333,11703.997556
1377541973,3996.915165374,11703.997556
1377542273,4020.323160486,11703.997556
1377542573,4024.224493004667,11703.997556
1377542873,3977.408502780667,11703.997556
1377543173,3979.35916904,11703.997556
1377543473,3979.35916904,11703.997556
1377543773,3977.408502780667,11703.997556
1377544073,4053.484486894667,11703.997556
1377544373,4028.125825523333,11703.997556
1377544673,4008.61916293,11703.997556
1377544973,3977.408502780667,11703.997556
1377545273,4026.175159264,11703.997556
1377545573,3985.211167818,11703.997556
1377545873,3991.063166596,11703.997556
1377546173,4049.583154376,11703.997556
1377546473,3983.2605015586655,11703.997556
1377546773,3991.063166596,11703.997556
1377547073,4030.076491782667,11703.997556
1377547373,4041.7804893386665,11703.997556
1377547673,4024.224493004667,11703.997556
1377547973,3983.2605015586655,11703.997556
1377548273,4020.323160486,11703.997556
1377548573,3979.35916904,11703.997556
1377548873,4024.224493004667,11703.997556
1377549173,3981.309835299333,11703.997556
1377549473,3993.0138328553335,11703.997556
1377549774,3989.1125003366674,11703.997556
1377550074,3985.629167730714,11703.997556
1377550374,3977.408502780667,11703.997556
1377550674,3989.1125003366674,11703.997556
1377550974,4030.076491782667,11703.997556
1377551274,4037.87915682,11703.997556
1377551574,3979.35916904,11703.997556
1377551874,4071.0404832286654,11703.997556
1377552174,3981.309835299333,11703.997556
1377552474,4078.843148266,11703.997556
1377552774,4002.767164152001,11703.997556
1377553074,3998.865831633333,11703.997556
1377553374,4008.61916293,11703.997556
1377553674,3994.964499114667,11703.997556
1377553974,4004.7178304113336,11703.997556
1377554274,3975.457836521334,11703.997556
1377554574,3979.35916904,11703.997556
1377554874,3965.704505224666,11703.997556
1377555174,3983.2605015586655,11703.997556
1377555474,4029.519158565714,11703.997556
1377555774,3971.5565040026654,11703.997556
1377556074,4018.372494226666,11703.997556
1377556374,4012.520495448666,11703.997556
1377556674,3967.655171484,11703.997556
1377556974,3971.5565040026654,11703.997556
1377557274,3975.457836521334,11703.997556
1377557574,3966.819171658571,11703.997556
1377557874,3963.753838965333,11703.997556
1377558174,3983.2605015586655,11703.997556
1377558474,3979.35916904,11703.997556
1377558774,3963.753838965333,11703.997556
1377559074,3965.704505224666,11703.997556
1377559374,3950.099175150001,11703.997556
1377559674,3948.148508890667,11703.997556
1377559974,3979.35916904,11703.997556
1377560274,3993.0138328553335,11703.997556
1377560574,3967.655171484,11703.997556
1377560874,4004.7178304113336,11703.997556
1377561174,3963.753838965333,11703.997556
1377561474,3952.049841409333,11703.997556
1377561774,3961.803172706,11703.997556
1377562074,3971.5565040026654,11703.997556
1377562374,4069.089816969333,11703.997556
1377562674,3985.211167818,11703.997556
1377562974,3973.507170262,11703.997556
1377563274,3989.1125003366674,11703.997556
1377563574,4000.816497892667,11703.997556
1377563874,3983.2605015586655,11703.997556
1377564174,4043.731155598,11703.997556
1377564474,3971.5565040026654,11703.997556
1377564774,3961.803172706,11703.997556
1377565074,3948.148508890667,11703.997556
1377565374,3957.9018401873327,11703.997556
1377565674,3971.5565040026654,11703.997556
1377565974,3977.408502780667,11703.997556
1377566274,3993.0138328553335,11703.997556
1377566574,3969.605837743333,11703.997556
1377566874,3965.704505224666,11703.997556
1377567175,3954.0005076686666,11703.997556
1377567475,3957.9018401873327,11703.997556
1377567775,4002.767164152001,11703.997556
1377568075,4024.224493004667,11703.997556
1377568375,3957.9018401873327,11703.997556
1377568675,3952.049841409333,11703.997556
1377568975,3920.83918126,11703.997556
1377569275,3874.023191036,11703.997556
1377569575,3897.431186148,11703.997556
1377569875,3844.763197146001,11703.997556
1377570175,3870.121858517333,11703.997556
1377570475,3870.121858517333,11703.997556
1377570775,3879.875189814,11703.997556
1377571075,3895.4805198886665,11703.997556
1377571375,3850.615195924,11703.997556
1377571675,3874.023191036,11703.997556
1377571975,3856.4671947020006,11703.997556
1377572275,3916.9378487413337,11703.997556
1377572575,3897.431186148,11703.997556
1377572875,3850.615195924,11703.997556
1377573175,3842.812530886667,11703.997556
1377573475,3844.763197146001,11703.997556
1377573776,3874.023191036,11703.997556
1377574076,3897.431186148,11703.997556
1377574376,3858.4178609613336,11703.997556
1377574676,3827.207200812001,11703.997556
1377574976,3598.97965191,11703.998868
1377575276,3860.368959962,11703.998868
1377575576,3883.776957698,11703.998868
1377575876,3883.776957698,11703.998868
1377576176,3870.122292352,11703.998868
1377576476,3875.974291786,11703.998868
1377576776,3848.664961094,11703.998868
1377577076,3862.31962644,11703.998868
1377577376,3846.714294616,11703.998868
1377577676,3860.368959962,11703.998868
1377577976,3877.924958264,11703.998868
1377578276,3897.431623044,11703.998868
1377578576,3944.247618516001,11703.998868
1377578876,3975.4582821640006,11703.998868
1377579176,3973.507615686001,11703.998868
1377579476,3977.408948642,11703.998868
1377579776,3965.704949774,11703.998868
1377580076,3973.507615686001,11703.998868
1377580376,4006.668945812,11703.998868
1377580676,4037.87960946,11703.998868
1377580976,3971.556949208,11703.998868
1377581276,3983.260948076,11703.998868
1377581576,3969.60628273,11703.998868
1377581876,3971.556949208,11703.998868
1377582176,3985.211614554,11703.998868
1377582476,3965.704949774,11703.998868
1377582776,3954.000950906,11703.998868
1377583077,3979.35961512,11703.998868
1377583377,3975.4582821640006,11703.998868
1377583677,4000.816946378001,11703.998868
1377583977,3975.4582821640006,11703.998868
1377584277,3961.8036168180006,11703.998868
1377584577,3955.951617384,11703.998868
1377584877,3967.655616252,11703.998868
1377585177,3973.507615686001,11703.998868
1377585477,3989.1129475100006,11703.998868
1377585777,3979.35961512,11703.998868
1377586077,3957.902283862,11703.998868
1377586377,3961.8036168180006,11703.998868
1377586677,4199.784927134,11703.998868
1377586977,4123.7089344920005,11703.998868
1377587277,4205.6369265680005,11703.998868
1377587577,4045.682275372,11703.998868
1377587877,4014.471611724,11703.998868
1377588177,4032.0276100260007,11703.998868
1377588477,4125.65960097,11703.998868
1377588776,4381.196909588001,11703.998868
1377589076,4164.6729305300005,11703.998868
1377589376,4151.0182651840005,11703.998868
1377589676,4328.5289146820005,11703.998868
1377589976,4207.587593046001,11703.998868
1377590277,4437.76623745,11703.998868
1377590577,4322.676915248001,11703.998868
1377590877,4092.4982708440007,11703.998868
1377591177,4055.435607762001,11703.998868
1377591477,4137.3635998380005,11703.998868
1377591777,4353.887578896,11703.998868
1377592077,4180.278262354001,11703.998868
1377592377,4139.314266316,11703.998868
1377592677,4197.834260656,11703.998868
1377592977,4174.42626292,11703.998868
1377593277,4426.062238582,11703.998868
1377593577,4258.304921474,11703.998868
1377593877,4250.502255562,11703.998868
1377594177,4055.435607762001,11703.998868
1377594477,4051.534274806,11703.998868
1377594777,4030.0769435480006,11703.998868
1377595077,4669.895548332,11703.998868
1377595377,4494.335565312,11703.998868
1377595677,4478.7302334880005,11703.998868
1377595977,4351.936912418001,11703.998868
1377596277,4396.802241412,11703.998868
1377596577,6195.316734128,11703.998868
1377596877,7533.473938036001,11703.998868
1377597177,5795.430106138001,11703.998868
1377597477,4414.358239714001,11703.998868
1377597777,6197.267400606001,11703.998868
1377598077,7004.843322498001,11703.998868
1377598377,5071.7328428,11703.998868
1377598677,3965.704949774,11703.998868
1377598977,4002.7676128560006,11703.998868
1377599577,4117.856935058,11703.998868
1377599877,4002.7676128560006,11703.998868
1377600177,4554.80622613,11703.998868
1377600477,6251.886061990001,11703.998868
1377600777,4176.376929398001,11703.998868
1377601077,4751.823540408001,11703.998868
1377601377,4273.9102532980005,11703.998868
1377601677,4642.58621764,11703.998868
1377601977,4396.802241412,11703.998868
1377602278,4465.0755681420005,11703.998868
1377602578,4586.016889778,11703.998868
1377602878,4866.91286261,11703.998868
1377603178,4671.84621481,11703.998868
1377603478,5233.638160474001,11703.998868
1377603778,5928.075426642001,11703.998868
1377604078,4882.518194434,11703.998868
1377604378,5385.790145758,11703.998868
1377604678,5875.407431736001,11703.998868
1377604978,5298.010154248001,11703.998868
1377605278,5085.387508146,11703.998868
1377605578,5374.08614689,11703.998868
1377605878,5141.956836008,11703.998868
1377606178,5163.414167266001,11703.998868
1377606478,4985.903517768001,11703.998868
1377606778,4937.136855818,11703.998868
1377607078,4775.231538143999,11703.998868
1377607378,5298.010154248001,11703.998868
1377607678,6388.432715450001,11703.998868
1377607978,4718.662210282,11703.998868
1377608278,5258.996824688,11703.998868
1377608578,6193.36606765,11703.998868
1377608878,5077.5848422340005,11703.998868
1377609178,4876.666195000001,11703.998868
1377609478,4615.2768869480005,11703.998868
1377609778,4506.0395641800005,11703.998868
1377610078,5686.192783369999,11703.998868
1377610378,4968.347519466,11703.998868
1377610678,4837.65286544,11703.998868
1377610978,5241.4408263860005,11703.998868
1377611278,6585.450029728,11703.998868
1377611578,7221.367301556002,11703.998868
1377611878,5664.7354521120005,11703.998868
1377612178,5036.620846196,11703.998868
1377612478,4888.3701938680015,11703.998868
1377612778,4490.434232356,11703.998868
1377613078,6226.527397776001,11703.998868
1377613378,5225.835494562,11703.998868
1377613678,5184.871498524,11703.998868
1377613978,5024.916847328,11703.998868
1377614279,5046.374178586,11703.998868
1377614579,5760.3181095340005,11703.998868
1377614879,4941.038188774,11703.998868
1377615179,6390.383381928001,11703.998868
1377615479,8856.025810120002,11703.998868
1377615779,7533.473938036001,11703.998868
1377616079,5746.6634441880005,11703.998868
1377616379,5795.430106138001,11703.998868
1377616679,4747.922207452,11703.998868
1377616979,5643.278120854001,11703.998868
1377617279,5713.502114062001,11703.998868
1377617579,4168.574263486,11703.998868
1377617879,4149.067598706,11703.998868
1377618179,4191.982261222,11703.998868
1377618479,4227.094257826,11703.998868
1377618779,5342.875483242,11703.998868
1377619079,5649.130120288001,11703.998868
1377619379,4398.752907890001,11703.998868
1377619679,3944.247618516001,11703.998868
1377619979,5483.323469658,11703.998868
1377620279,5461.866138400002,11703.998868
1377620579,5081.486175190001,11703.998868
1377620879,4652.33955003,11703.998868
1377621179,4950.791521164,11703.998868
1377621479,5674.488784501999,11703.998868
1377621779,5709.600781106,11703.998868
1377622079,4108.103602668,11703.998868
1377622379,3780.391634364,11703.998868
1377622679,3786.2436337980007,11703.998868
1377622979,3815.503630968,11703.998868
1377623279,3780.391634364,11703.998868
1377623579,3799.8982991440007,11703.998868
1377623879,3766.736969018,11703.998868
1377624179,3764.78630254,11703.998868
1377624479,3774.53963493,11703.998868
1377624779,3784.292967320001,11703.998868
1377625079,3805.750298578,11703.998868
1377625379,3807.700965056,11703.998868
1377625679,3780.391634364,11703.998868
1377625979,3753.082303672,11703.998868
1377626279,3755.03297015,11703.998868
1377626579,3755.03297015,11703.998868
1377626879,3766.736969018,11703.998868
1377627179,3780.391634364,11703.998868
1377627479,3751.131637194,11703.998868
1377627779,3756.983636628001,11703.998868
1377628079,3741.378304804,11703.998868
1377628379,3756.983636628001,11703.998868
1377628679,3749.180970716,11703.998868
1377628979,3766.736969018,11703.998868
1377629279,3745.27963776,11703.998868
1377629580,3743.328971282001,11703.998868
1377629880,3749.180970716,11703.998868
1377630180,3760.884969584,11703.998868
1377630480,3758.934303106,11703.998868
1377630780,3772.588968452,11703.998868
1377631080,3741.378304804,11703.998868
1377631380,3745.27963776,11703.998868
1377631680,3747.230304238,11703.998868
1377631980,3758.934303106,11703.998868
1377632280,3751.131637194,11703.998868
1377632580,3766.736969018,11703.998868
1377632880,3751.131637194,11703.998868
1377633180,3743.328971282001,11703.998868
1377633480,3743.328971282001,11703.998868
1377633780,3751.131637194,11703.998868
1377634080,3778.440967886,11703.998868
1377634380,3764.78630254,11703.998868
1377634680,3751.131637194,11703.998868
1377634980,3745.27963776,11703.998868
1377635280,3745.27963776,11703.998868
1377635580,3807.700965056,11703.998868
1377635880,3762.835636062,11703.998868
1377636180,3747.230304238,11703.998868
1377636480,3797.947632666,11703.998868
1377636780,3743.328971282001,11703.998868
1377637080,3741.378304804,11703.998868
1377637680,3768.687635496,11703.998868
1377637980,3751.131637194,11703.998868
1377638280,3751.131637194,11703.998868
1377638581,3737.476971848,11703.998868
1377638881,3745.27963776,11703.998868
1377639181,3745.27963776,11703.998868
1377639481,3778.440967886,11703.998868
1377639781,3813.5529644900007,11703.998868
1377640081,3770.638301974001,11703.998868
1377640381,3766.736969018,11703.998868
1377640681,3842.812961660001,11703.998868
1377640981,3751.131637194,11703.998868
1377641281,3836.960962226,11703.998868
1377641581,3778.440967886,11703.998868
1377641881,3751.131637194,11703.998868
1377642181,3739.427638326,11703.998868
1377642481,3743.328971282001,11703.998868
1377642781,3807.700965056,11703.998868
1377643081,3764.78630254,11703.998868
1377643381,3758.934303106,11703.998868
1377643681,3749.180970716,11703.998868
1377643981,3792.095633232,11703.998868
1377644281,3741.378304804,11703.998868
1377644581,3770.638301974001,11703.998868
1377644881,3786.2436337980007,11703.998868
1377645181,3792.095633232,11703.998868
1377645481,3784.292967320001,11703.998868
1377645781,3745.27963776,11703.998868
1377646081,3778.440967886,11703.998868
1377646381,3756.983636628001,11703.998868
1377646681,3764.78630254,11703.998868
1377646981,3809.651631534,11703.998868
1377647281,3755.03297015,11703.998868
1377647581,3747.230304238,11703.998868
1377647881,3749.180970716,11703.998868
1377648181,3753.082303672,11703.998868
1377648481,3776.490301408,11703.998868
1377648781,3807.700965056,11703.998868
1377649081,3756.983636628001,11703.998868
1377649381,3745.27963776,11703.998868
1377649681,3747.230304238,11703.998868
1377649982,3760.884969584,11703.998868
1377650282,3774.53963493,11703.998868
1377650582,3758.934303106,11703.998868
1377650882,3755.03297015,11703.998868
1377651182,3745.27963776,11703.998868
1377651482,3747.230304238,11703.998868
1377651782,3815.503630968,11703.998868
1377652082,3766.736969018,11703.998868
1377652382,3799.8982991440007,11703.998868
1377652682,3782.342300842,11703.998868
1377652982,3807.700965056,11703.998868
1377653282,3784.292967320001,11703.998868
1377653582,3852.56629405,11703.998868
1377653882,3770.638301974001,11703.998868
1377654182,3751.131637194,11703.998868
1377654482,3799.8982991440007,11703.998868
1377654782,3753.082303672,11703.998868
1377655082,3872.072958830001,11703.998868
1377655382,3753.082303672,11703.998868
1377655682,3610.683650778001,11703.998868
1377655982,3628.23964908,11703.998868
1377656282,3639.943647948001,11703.998868
1377656582,3651.647646816,11703.998868
1377656882,3639.943647948001,11703.998868
1377657182,3671.154311596,11703.998868
1377657482,3632.140982036,11703.998868
1377657782,3622.387649646,11703.998868
1377658082,3624.338316124,11703.998868
1377658382,3616.535650212,11703.998868
1377658682,3655.5489797720006,11703.998868
1377658982,3661.400979206001,11703.998868
1377659282,3626.288982602001,11703.998868
1377659582,3637.99298147,11703.998868
1377659882,3647.74631386,11703.998868
1377660182,3628.23964908,11703.998868
1377660482,3626.288982602001,11703.998868
1377660782,3626.288982602001,11703.998868
1377661082,3639.943647948001,11703.998868
1377661382,3637.99298147,11703.998868
1377661682,3618.48631669,11703.998868
1377661982,3636.042314992,11703.998868
1377662282,3632.140982036,11703.998868
1377662582,3647.74631386,11703.998868
1377662882,3624.338316124,11703.998868
1377663182,3637.99298147,11703.998868
1377663482,3641.894314426,11703.998868
1377663782,3630.190315558,11703.998868
1377664082,3634.091648514,11703.998868
1377664382,3634.091648514,11703.998868
1377664683,3614.5849837340006,11703.998868
1377664983,3618.48631669,11703.998868
1377665283,3604.831651344,11703.998868
1377665583,3739.427638326,11703.998868
1377665883,3756.983636628001,11703.998868
1377666183,3782.342300842,11703.998868
1377666483,3821.355630402,11703.998868
1377666783,3825.2569633580006,11703.998868
1377667083,3797.947632666,11703.998868
1377667383,3753.082303672,11703.998868
1377667683,3801.848965622,11703.998868
1377667983,3766.736969018,11703.998868
1377668283,3799.8982991440007,11703.998868
1377668583,3749.180970716,11703.998868
1377668883,3735.52630537,11703.998868
1377669183,3755.03297015,11703.998868
1377669483,3770.638301974001,11703.998868
1377669783,3774.53963493,11703.998868
1377670083,3756.983636628001,11703.998868
1377670383,3747.230304238,11703.998868
1377670683,3743.328971282001,11703.998868
1377670983,3729.674305936,11703.998868
1377671283,3729.674305936,11703.998868
1377671583,3760.884969584,11703.998868
1377671883,3729.674305936,11703.998868
1377672183,3784.292967320001,11703.998868
1377672483,3737.476971848,11703.998868
1377672783,3723.8223065020006,11703.998868
1377673083,3788.194300276,11703.998868
1377673383,3762.835636062,11703.998868
1377673683,3993.014280466,11703.998868
1377673983,3819.404963924,11703.998868
1377674283,3811.602298012,11703.998868
1377674583,4531.398228394,11703.998868
1377674883,4104.202269712,11703.998868
1377675183,5060.028843931999,11703.998868
1377675483,7246.7259657700015,11703.998868
1377675783,7552.980602816,11703.998868
1377676083,7773.405914830001,11703.998868
1377676383,7909.952568289999,11703.998868
1377676684,7393.02595162,11703.998868
1377676984,7078.968648662,11703.998868
1377677284,7016.547321366001,11703.998868
1377677584,6963.879326460001,11703.998868
1377677884,6983.38599124,11703.998868
1377678184,7617.35259659,11703.998868
1377678484,6874.148668471999,11703.998868
1377678784,7572.487267596001,11703.998868
1377679084,7644.661927282,11703.998868
1377679384,7987.979227410001,11703.998868
1377679684,8099.167216656001,11703.998868
1377679984,8779.949817478,11703.998868
1377680284,9821.60571673,11703.998868
1377680584,9928.892373020002,11703.998868
1377680884,9763.085722389998,11703.998868
1377681184,9765.036388868,11703.998868
1377681484,9521.203079118,11703.998868
1377681784,9525.104412074,11703.998868
1377682084,9513.400413206,11703.998868
1377682384,9507.548413772,11703.998868
1377682684,9509.49908025,11703.998868
1377682984,9655.7990661,11703.998868
1377683284,9478.288416602,11703.998868
1377683584,9474.387083646,11703.998868
1377683884,9552.413742766,11703.998868
1377684184,9905.484375284,11703.998868
1377684484,9525.104412074,11703.998868
1377684784,9482.189749558,11703.998868
1377685084,9548.51240981,11703.998868
1377685384,9443.176419998,11703.998868
1377685684,9482.189749558,11703.998868
1377685984,9449.028419432,11703.998868
1377686284,9468.535084212,11703.998868
1377686584,9501.696414338,11703.998868
1377686884,9766.987055346,11703.998868
1377687184,9597.27907176,11703.998868
1377687484,9642.144400754,11703.998868
1377687784,9628.489735408,11703.998868
1377688084,9529.00574503,11703.998868
1377688384,9751.381723522,11703.998868
1377688684,10340.482999878,11703.998868
1377688984,9944.497704843998,11703.998868
1377689284,9751.381723522,11703.998868
1377689584,9651.897733143998,11703.998868
1377689884,9866.471045724,11703.998868
1377690184,9706.516394528,11703.998868
1377690484,9499.74574786,11703.998868
1377690784,9640.193734276,11703.998868
1377691084,9722.121726352,11703.998868
1377691384,9724.07239283,11703.998868
1377691684,9554.364409244,11703.998868
1377691984,9542.660410376,11703.998868
1377692284,9515.351079684,11703.998868
1377692584,9519.25241264,11703.998868
1377692884,9501.696414338,11703.998868
1377693184,9548.51240981,11703.998868
1377693484,9708.467061006,11703.998868
1377693784,10084.94569126,11703.998868
1377694084,10022.524363964,11703.998868
1377694384,9807.951051384,11703.998868
1377694684,9772.83905478,11703.998868
1377694984,9486.091082514,11703.998868
1377695284,9601.180404716002,11703.998868
1377695584,9626.53906893,11703.998868
1377695884,9858.529046492144,11703.998868
1377696184,9880.12571107,11703.998868
1377696484,9679.207063836002,11703.998868
1377696785,9675.30573088,11703.998868
1377697085,9476.337750124,11703.998868
1377697385,9538.75907742,11703.998868
1377697685,9581.673739936,11703.998868
1377697985,9587.52573937,11703.998868
1377698285,9589.476405848,11703.998868
1377698585,9589.476405848,11703.998868
1377698885,9649.947066666,11703.998868
1377699185,10036.17902931,11703.998868
1377699485,10186.380348116005,11703.998868
1377699785,9581.673739936,11703.998868
1377700085,9936.695038932,11703.998868
1377700385,9821.60571673,11703.998868
1377700685,9887.928376982,11703.998868
1377700985,9903.533708806,11703.998868
1377701285,9848.915047422,11703.998868
1377701585,9872.323045158,11703.998868
1377701885,9655.7990661,11703.998868
1377702185,9646.04573371,11703.998868
1377702485,9930.843039498,11703.998868
1377702785,9798.197718994,11703.998868
1377703085,10188.331014594,11703.998868
1377703385,10233.196343588,11703.998868
1377703685,10040.080362266002,11703.998868
1377703985,9999.116366228,11703.998868
1377704285,9874.273711636,11703.998868
1377704585,9591.427072326002,11703.998868
1377704885,9647.996400188,11703.998868
1377705185,9509.49908025,11703.998868
1377705485,9474.387083646,11703.998868
1377705785,9486.091082514,11703.998868
1377706085,9540.709743898,11703.998868
1377706385,9493.893748426,11703.998868
1377706685,9466.584417734,11703.998868
1377706986,9466.584417734,11703.998868
1377707286,9476.337750124,11703.998868
1377707586,9478.288416602,11703.998868
1377707886,9488.041748992,11703.998868
1377708186,9464.633751256002,11703.998868
1377708486,9488.041748992,11703.998868
1377708786,9464.633751256002,11703.998868
1377709086,9472.436417168,11703.998868
1377709386,9484.140416036,11703.998868
1377709686,9491.943081948,11703.998868
1377709986,9468.535084212,11703.998868
1377710286,9474.387083646,11703.998868
1377710586,9458.781751822,11703.998868
1377710886,9484.140416036,11703.998868
1377711186,9466.584417734,11703.998868
1377711486,9468.535084212,11703.998868
1377711786,9460.7324183,11703.998868
1377712086,9455.159085505717,11703.998868
1377712386,9484.140416036,11703.998868
1377712686,9466.584417734,11703.998868
1377712986,9482.189749558,11703.998868
1377713286,9456.831085344,11703.998868
1377713586,9509.49908025,11703.998868
1377713886,9443.176419998,11703.998868
1377714186,9468.535084212,11703.998868
1377714486,9460.7324183,11703.998868
1377714786,9488.041748992,11703.998868
1377715086,9470.48575069,11703.998868
1377715386,9480.23908308,11703.998868
1377715686,9486.091082514,11703.998868
1377715987,9482.189749558,11703.998868
1377716287,9474.387083646,11703.998868
1377716587,9472.436417168,11703.998868
1377716887,9480.23908308,11703.998868
1377717187,9482.189749558,11703.998868
1377717487,9447.077752954,11703.998868
1377717787,9474.387083646,11703.998868
1377718087,9484.140416036,11703.998868
1377718387,9476.337750124,11703.998868
1377718687,9450.97908591,11703.998868
1377718987,9478.288416602,11703.998868
1377719286,9476.337750124,11703.998868
1377719586,9474.387083646,11703.998868
1377719886,9474.387083646,11703.998868
1377720186,9460.7324183,11703.998868
1377720486,9470.48575069,11703.998868
1377720786,9474.387083646,11703.998868
1377721086,9456.831085344,11703.998868
1377721386,9497.795081382,11703.998868
1377721686,9472.436417168,11703.998868
1377721986,9470.48575069,11703.998868
1377722286,9470.48575069,11703.998868
1377722586,9482.189749558,11703.998868
1377722886,9460.7324183,11703.998868
1377723186,9464.633751256002,11703.998868
1377723486,9470.48575069,11703.998868
1377723787,9466.584417734,11703.998868
1377724087,9470.48575069,11703.998868
1377724387,9452.929752388,11703.998868
1377724687,9462.683084778,11703.998868
1377724987,9452.929752388,11703.998868
1377725287,9476.337750124,11703.998868
1377725587,9456.831085344,11703.998868
1377725887,9450.97908591,11703.998868
1377726187,9466.584417734,11703.998868
1377726487,9456.831085344,11703.998868
1377726787,9460.7324183,11703.998868
1377727087,9468.535084212,11703.998868
1377727387,9476.337750124,11703.998868
1377727687,9497.795081382,11703.998868
1377727987,9482.189749558,11703.998868
1377728287,9476.337750124,11703.998868
1377728587,9468.535084212,11703.998868
1377728887,9472.436417168,11703.998868
1377729187,9480.23908308,11703.998868
1377729487,9452.929752388,11703.998868
1377729787,9489.99241547,11703.998868
1377730087,9449.028419432,11703.998868
1377730387,9476.337750124,11703.998868
1377730687,9497.795081382,11703.998868
1377730987,9468.535084212,11703.998868
1377731288,9478.288416602,11703.998868
1377731588,9491.943081948,11703.998868
1377731888,9460.7324183,11703.998868
1377732188,9472.436417168,11703.998868
1377732488,9484.140416036,11703.998868
1377732788,9470.48575069,11703.998868
1377733088,9484.140416036,11703.998868
1377733388,9480.23908308,11703.998868
1377733688,9468.535084212,11703.998868
1377733988,9462.683084778,11703.998868
1377734288,9456.831085344,11703.998868
1377734588,9472.436417168,11703.998868
1377734888,9472.436417168,11703.998868
1377735188,9462.683084778,11703.998868
1377735488,9443.176419998,11703.998868
1377735788,9480.23908308,11703.998868
1377736088,9466.584417734,11703.998868
1377736388,9462.683084778,11703.998868
1377736688,9491.943081948,11703.998868
1377736988,9488.041748992,11703.998868
1377737288,9470.48575069,11703.998868
1377737588,9489.99241547,11703.998868
1377737888,9505.597747294,11703.998868
1377738188,9466.584417734,11703.998868
1377738489,9480.23908308,11703.998868
1377738789,9480.23908308,11703.998868
1377739089,9480.23908308,11703.998868
1377739389,9484.140416036,11703.998868
1377739689,9486.091082514,11703.998868
1377739989,9474.387083646,11703.998868
1377740289,9489.99241547,11703.998868
1377740589,9480.23908308,11703.998868
1377740889,9447.077752954,11703.998868
1377741189,9460.7324183,11703.998868
1377741489,9464.633751256002,11703.998868
1377741789,9495.844414904,11703.998868
1377742089,9493.893748426,11703.998868
1377742389,9470.48575069,11703.998868
1377742689,9476.337750124,11703.998868
1377742989,9495.844414904,11703.998868
1377743289,9489.99241547,11703.998868
1377743589,9484.140416036,11703.998868
1377743889,9464.633751256002,11703.998868
1377744189,9493.893748426,11703.998868
1377744489,9474.387083646,11703.998868
1377744789,9470.48575069,11703.998868
1377745089,9489.99241547,11703.998868
1377745389,9486.091082514,11703.998868
1377745689,9472.436417168,11703.998868
1377745989,9445.127086476,11703.998868
1377746289,9460.7324183,11703.998868
1377746589,9476.337750124,11703.998868
1377746889,9482.189749558,11703.998868
1377747189,9462.683084778,11703.998868
1377747489,9464.633751256002,11703.998868
1377747789,9476.337750124,11703.998868
1377748089,9480.23908308,11703.998868
1377748389,9466.584417734,11703.998868
1377748690,9486.091082514,11703.998868
1377748990,9458.781751822,11703.998868
1377749290,9464.633751256002,11703.998868
1377749590,9488.041748992,11703.998868
1377749890,9449.028419432,11703.998868
1377750190,9482.189749558,11703.998868
1377750490,9472.436417168,11703.998868
1377750790,9486.091082514,11703.998868
1377751090,9449.028419432,11703.998868
1377751390,9472.436417168,11703.998868
1377751690,9423.669755218,11703.998868
1377751990,9458.781751822,11703.998868
1377752289,9372.95242679,11703.998868
1377752589,9398.311091004,11703.998868
1377752889,9433.423087608,11703.998868
1377753189,9433.423087608,11703.998868
1377753489,9427.571088174,11703.998868
1377753789,9408.064423394,11703.998868
1377754089,9369.051093834,11703.998868
1377754389,9365.149760878,11703.998868
1377754689,9427.571088174,11703.998868
1377754989,9398.311091004,11703.998868
1377755289,9374.903093268,11703.998868
1377755589,9400.261757482,11703.998868
1377755890,9410.015089872,11703.998868
1377756190,9396.360424526,11703.998868
1377756490,9384.656425658,11703.998868
1377756790,9437.324420564,11703.998868
1377757090,9361.248427922,11703.998868
1377757390,9449.028419432,11703.998868
1377757690,9378.804426224,11703.998868
1377757990,9406.113756916002,11703.998868
1377758290,9406.113756916002,11703.998868
1377758590,9443.176419998,11703.998868
1377758890,9404.163090438,11703.998868
1377759190,9302.728433582,11703.998868
1377759490,9195.441777292,11703.998868
1377759790,9318.333765406,11703.998868
1377760090,9019.881794272,11703.998868
1377760390,9214.948442072002,11703.998868
1377760690,9156.428447732002,11703.998868
1377760990,9211.047109116,11703.998868
1377761290,9252.011105154,11703.998868
1377761590,9193.491110814,11703.998868
1377761890,9499.74574786,11703.998868
1377762190,9718.220393396005,11703.998868
1377762490,9634.341734842,11703.998868
1377762790,9568.01907459,11703.998868
1377763090,9589.476405848,11703.998868
1377763390,9540.709743898,11703.998868
1377763690,9489.99241547,11703.998868
1377763990,9491.943081948,11703.998868
1377764290,9527.055078552,11703.998868
1377764590,9687.009729748,11703.998868
1377764890,9634.341734842,11703.998868
1377765191,10492.634985162002,11703.998868
1377765491,9979.609701448,11703.998868
1377765791,10377.54566296,11703.998868
1377766091,10453.621655602,11703.998868
1377766391,10350.236332268,11703.998868
1377766691,9700.664395094002,11703.998868
1377766991,9720.171059874,11703.998868
1377767291,9612.884403584,11703.998868
1377767591,9885.977710504,11703.998868
1377767891,10135.663019688,11703.998868
1377768191,9917.188374152,11703.998868
1377768491,9845.013714466,11703.998868
1377768791,9677.256397358002,11703.998868
1377769091,9608.983070628,11703.998868
1377769391,9649.947066666,11703.998868
1377769691,9628.489735408,11703.998868
1377769991,9825.507049686,11703.998868
1377770291,9571.920407546,11703.998868
1377770591,9601.180404716002,11703.998868
1377770891,9476.337750124,11703.998868
1377771191,9460.7324183,11703.998868
1377771491,9435.373754086,11703.998868
1377771791,9452.929752388,11703.998868
1377772091,9489.99241547,11703.998868
1377772391,9462.683084778,11703.998868
1377772691,9470.48575069,11703.998868
1377772991,9530.956411508,11703.998868
1377773291,9538.75907742,11703.998868
1377773591,9577.77240698,11703.998868
1377773891,9913.287041196,11703.998868
1377774191,9889.87904346,11703.998868
1377774491,10065.43902648,11703.998868
1377774791,10075.19235887,11703.998868
1377775091,10108.353688996,11703.998868
1377775391,10153.21901799,11703.998868
1377775691,10217.591011764,11703.998868
1377775991,9911.336374718,11703.998868
1377776291,9626.53906893,11703.998868
1377776591,10040.080362266002,11703.998868
1377776892,10127.860353776005,11703.998868
1377777192,9499.74574786,11703.998868
1377777492,9577.77240698,11703.998868
1377777792,9554.364409244,11703.998868
1377778092,9521.203079118,11703.998868
1377778392,9497.795081382,11703.998868
1377778692,9493.893748426,11703.998868
1377778992,9536.808410942,11703.998868
1377779292,9675.30573088,11703.998868
1377779592,9499.74574786,11703.998868
1377779892,9538.75907742,11703.998868
1377780192,9507.548413772,11703.998868
1377780492,9511.449746728,11703.998868
1377780792,9702.615061572002,11703.998868
1377781092,9482.189749558,11703.998868
1377781392,9499.74574786,11703.998868
1377781692,9470.48575069,11703.998868
1377781992,9515.351079684,11703.998868
1377782292,9495.844414904,11703.998868
1377782592,9536.808410942,11703.998868
1377782892,9484.140416036,11703.998868
1377783192,9536.808410942,11703.998868
1377783492,9690.911062704,11703.998868
1377783792,9741.628391132,11703.998868
1377784092,9511.449746728,11703.998868
1377784392,9614.835070062,11703.998868
1377784692,9571.920407546,11703.998868
1377784992,9583.624406414,11703.998868
1377785292,9571.920407546,11703.998868
1377785591,9726.023059308,11703.998868
1377785891,9571.920407546,11703.998868
1377786192,9501.696414338,11703.998868
1377786492,9562.167075156,11703.998868
1377786792,9605.081737672,11703.998868
1377787092,9530.956411508,11703.998868
1377787392,9587.52573937,11703.998868
1377787692,9768.937721824,11703.998868
1377787992,9486.091082514,11703.998868
1377788292,9497.795081382,11703.998868
1377788592,9706.516394528,11703.998868
1377788892,9525.104412074,11703.998868
1377789192,9517.301746162,11703.998868
1377789492,9529.00574503,11703.998868
1377789792,9478.288416602,11703.998868
1377790092,9466.584417734,11703.998868
1377790392,9484.140416036,11703.998868
1377790692,9468.535084212,11703.998868
1377790992,9468.535084212,11703.998868
1377791292,9460.7324183,11703.998868
1377791592,9482.189749558,11703.998868
1377791892,9466.584417734,11703.998868
1377792192,9443.176419998,11703.998868
1377792492,9474.387083646,11703.998868
1377792792,9470.48575069,11703.998868
1377793092,9456.831085344,11703.998868
1377793392,9478.288416602,11703.998868
1377793692,9482.189749558,11703.998868
1377793992,9460.7324183,11703.998868
1377794292,9466.584417734,11703.998868
1377794592,9458.781751822,11703.998868
1377794892,9454.880418866,11703.998868
1377795192,9468.535084212,11703.998868
1377795492,9486.091082514,11703.998868
1377795793,9472.436417168,11703.998868
1377796093,9454.880418866,11703.998868
1377796393,9470.48575069,11703.998868
1377796693,9458.781751822,11703.998868
1377796993,9478.288416602,11703.998868
1377797293,9474.387083646,11703.998868
1377797593,9460.7324183,11703.998868
1377797893,9458.781751822,11703.998868
1377798193,9466.584417734,11703.998868
1377798493,9456.831085344,11703.998868
1377798793,9452.929752388,11703.998868
1377799093,9462.683084778,11703.998868
1377799393,9452.929752388,11703.998868
1377799693,9452.929752388,11703.998868
1377799993,9464.633751256002,11703.998868
1377800293,9468.535084212,11703.998868
1377800593,9466.584417734,11703.998868
1377800893,9460.7324183,11703.998868
1377801193,9474.387083646,11703.998868
1377801493,9441.22575352,11703.998868
1377801793,9458.781751822,11703.998868
1377802093,9454.880418866,11703.998868
1377802393,9452.929752388,11703.998868
1377802693,9450.97908591,11703.998868
1377802993,9454.880418866,11703.998868
1377803293,9458.781751822,11703.998868
1377803593,9464.633751256002,11703.998868
1377803893,9482.189749558,11703.998868
1377804194,9462.683084778,11703.998868
1377804494,9466.584417734,11703.998868
1377804794,9489.99241547,11703.998868
1377805094,9484.140416036,11703.998868
1377805394,9462.683084778,11703.998868
1377805694,9466.584417734,11703.998868
1377805994,9489.99241547,11703.998868
1377806294,9468.535084212,11703.998868
1377806594,9458.781751822,11703.998868
1377806894,9480.23908308,11703.998868
1377807194,9486.091082514,11703.998868
1377807494,9474.387083646,11703.998868
1377807794,9458.781751822,11703.998868
1377808094,9468.535084212,11703.998868
1377808394,9478.288416602,11703.998868
1377808694,9468.535084212,11703.998868
1377808994,9472.436417168,11703.998868
1377809294,9460.7324183,11703.998868
1377809594,9476.337750124,11703.998868
1377809894,9488.041748992,11703.998868
1377810194,9484.140416036,11703.998868
1377810494,9476.337750124,11703.998868
1377810794,9476.337750124,11703.998868
1377811094,9464.633751256002,11703.998868
1377811394,9474.387083646,11703.998868
1377811694,9466.584417734,11703.998868
1377811994,9456.831085344,11703.998868
1377812294,9470.48575069,11703.998868
1377812594,9466.584417734,11703.998868
1377812894,9474.387083646,11703.998868
1377813194,9464.633751256002,11703.998868
1377813494,9462.683084778,11703.998868
1377813794,9466.584417734,11703.998868
1377814094,9474.387083646,11703.998868
1377814395,9466.584417734,11703.998868
1377814695,9489.99241547,11703.998868
1377814995,9458.781751822,11703.998868
1377815295,9478.288416602,11703.998868
1377815595,9464.633751256002,11703.998868
1377815895,9491.943081948,11703.998868
1377816195,9515.351079684,11703.998868
1377816495,9464.633751256002,11703.998868
1377816795,9452.929752388,11703.998868
1377817095,9472.436417168,11703.998868
1377817395,9466.584417734,11703.998868
1377817694,9472.436417168,11703.998868
1377817994,9456.831085344,11703.998868
1377818294,9480.23908308,11703.998868
1377818594,9456.831085344,11703.998868
1377818894,9472.436417168,11703.998868
1377819194,9468.535084212,11703.998868
1377819494,9462.683084778,11703.998868
1377819794,9462.683084778,11703.998868
1377820094,9456.831085344,11703.998868
1377820394,9476.337750124,11703.998868
1377820694,9466.584417734,11703.998868
1377820994,9489.99241547,11703.998868
1377821294,9474.387083646,11703.998868
1377821594,9474.387083646,11703.998868
1377821894,9474.387083646,11703.998868
1377822194,9470.48575069,11703.998868
1377822494,9472.436417168,11703.998868
1377822794,9484.140416036,11703.998868
1377823094,9482.189749558,11703.998868
1377823394,9468.535084212,11703.998868
1377823694,9480.23908308,11703.998868
1377823994,9462.683084778,11703.998868
1377824294,9462.683084778,11703.998868
1377824595,9460.7324183,11703.998868
1377824895,9470.48575069,11703.998868
1377825195,9468.535084212,11703.998868
1377825495,9458.781751822,11703.998868
1377825795,9460.7324183,11703.998868
1377826095,9462.683084778,11703.998868
1377826395,9458.781751822,11703.998868
1377826695,9474.387083646,11703.998868
1377826995,9482.189749558,11703.998868
1377827295,9472.436417168,11703.998868
1377827595,9462.683084778,11703.998868
1377827895,9458.781751822,11703.998868
1377828195,9386.607092136,11703.998868
1377828495,9372.95242679,11703.998868
1377828795,9271.517769934,11703.998868
1377829095,9291.024434714,11703.998868
1377829395,9335.889763708,11703.998868
1377829695,9343.69242962,11703.998868
1377829995,9382.70575918,11703.998868
1377830295,9267.616436978002,11703.998868
1377830595,9318.333765406,11703.998868
1377830895,9353.445762010002,11703.998868
1377831195,9333.93909723,11703.998868
1377831495,9330.037764274,11703.998868
1377831795,9372.95242679,11703.998868
1377832095,9326.136431318002,11703.998868
1377832395,9339.791096664,11703.998868
1377832695,9371.001760312,11703.998868
1377832995,9367.100427356,11703.998868
1377833295,9349.544429054,11703.998868
1377833595,9339.791096664,11703.998868
1377833895,9367.100427356,11703.998868
1377834195,9275.41910289,11703.998868
1377834495,9318.333765406,11703.998868
1377834795,9331.988430752,11703.998868
1377835095,9347.593762576002,11703.998868
1377835395,9291.024434714,11703.998868
1377835695,9374.903093268,11703.998868
1377835996,9355.396428488,11703.998868
1377836296,9349.544429054,11703.998868
1377836596,9376.853759746002,11703.998868
1377836896,9396.360424526,11703.998868
1377837196,9337.840430186,11703.998868
1377837496,9331.988430752,11703.998868
1377837796,9326.136431318002,11703.998868
1377838096,9306.629766538,11703.998868
1377838396,9339.791096664,11703.998868
1377838696,9339.791096664,11703.998868
1377838996,9244.208439242,11703.998868
1377839296,9452.929752388,11703.998868
1377839596,9466.584417734,11703.998868
1377839896,9472.436417168,11703.998868
1377840196,9466.584417734,11703.998868
1377840496,9466.584417734,11703.998868
1377840796,9472.436417168,11703.998868
1377841096,9462.683084778,11703.998868
1377841396,9472.436417168,11703.998868
1377841696,9476.337750124,11703.998868
1377841996,9478.288416602,11703.998868
1377842296,9468.535084212,11703.998868
1377842596,9476.337750124,11703.998868
1377842896,9470.48575069,11703.998868
1377843196,9464.633751256002,11703.998868
1377843496,9480.23908308,11703.998868
1377843796,9458.781751822,11703.998868
1377844096,9452.929752388,11703.998868
1377844396,9470.48575069,11703.998868
1377844696,9462.683084778,11703.998868
1377844997,9454.880418866,11703.998868
1377845297,9476.337750124,11703.998868
1377845597,9454.880418866,11703.998868
1377845897,9466.584417734,11703.998868
1377846197,9482.189749558,11703.998868
1377846497,9472.436417168,11703.998868
1377846797,9472.436417168,11703.998868
1377847097,9462.683084778,11703.998868
1377847397,9460.7324183,11703.998868
1377847697,9474.387083646,11703.998868
1377847997,9472.436417168,11703.998868
1377848297,9449.028419432,11703.998868
1377848597,9452.929752388,11703.998868
1377848897,9552.413742766,11703.998868
1377849197,9505.597747294,11703.998868
1377849497,9491.943081948,11703.998868
1377849797,9470.48575069,11703.998868
1377850097,9468.535084212,11703.998868
1377850397,9480.23908308,11703.998868
1377850696,9474.387083646,11703.998868
1377850996,9478.288416602,11703.998868
1377851296,9478.288416602,11703.998868
1377851596,9472.436417168,11703.998868
1377851896,9472.436417168,11703.998868
1377852196,9474.387083646,11703.998868
1377852496,9679.207063836002,11703.998868
1377852796,8916.496470938002,11703.998868
1377853096,6889.754000296,11703.998868
1377853396,6825.382006522001,11703.998868
1377853696,6835.135338912,11703.998868
1377853996,6807.82600822,11703.998868
1377854297,6794.171342874,11703.998868
1377854597,6959.9779935040015,11703.998868
1377854897,6796.1220093520005,11703.998868
1377855197,6786.368676961999,11703.998868
1377855497,6755.1580133140005,11703.998868
1377855797,6778.566011050001,11703.998868
1377856097,6819.530007088001,11703.998868
1377856397,6801.974008786001,11703.998868
1377856697,6792.220676396,11703.998868
1377856997,6800.023342308001,11703.998868
1377857297,6784.418010484002,11703.998868
1377857597,6823.431340044,11703.998868
1377857897,6813.678007654001,11703.998868
1377858197,6893.655333252,11703.998868
1377858497,6788.319343440001,11703.998868
1377858797,6768.81267866,11703.998868
1377859097,6764.911345704,11703.998868
1377859397,6772.714011616,11703.998868
1377859697,6762.960679225999,11703.998868
1377859997,6759.05934627,11703.998868
1377860297,6817.57934061,11703.998868
1377860597,6796.1220093520005,11703.998868
1377860897,6850.7406707360005,11703.998868
1377861197,7529.57260508,11703.998868
1377861497,7055.560650926001,11703.998868
1377861797,6961.928659981999,11703.998868
1377862097,6979.484658284,11703.998868
1377862397,7281.837962374,11703.998868
1377862698,7790.961913132,11703.998868
1377862998,7061.412650359999,11703.998868
1377863298,7396.9272845760015,11703.998868
1377863598,7075.067315706001,11703.998868
1377863898,6983.38599124,11703.998868
1377864198,6948.273994636,11703.998868
1377864498,7231.120633946,11703.998868
1377864798,7030.201986712001,11703.998868
1377865098,7207.71263621,11703.998868
1377865398,6817.57934061,11703.998868
1377865698,6930.717996334,11703.998868
1377865998,6839.036671868001,11703.998868
1377866298,7851.43257395,11703.998868
1377866598,7648.563260237999,11703.998868
1377866898,8025.041890492001,11703.998868
1377867198,7289.640628286001,11703.998868
1377867498,7156.995307782,11703.998868
1377867798,6950.224661114001,11703.998868
1377868098,6959.9779935040015,11703.998868
1377868398,7110.17931231,11703.998868
1377868698,7096.524646964,11703.998868
1377868998,6805.875341742,11703.998868
1377869298,7277.936629418,11703.998868
1377869598,7180.403305518001,11703.998868
1377869898,7566.635268162001,11703.998868
1377870198,7340.357956714,11703.998868
1377870498,7515.917939734,11703.998868
1377870798,7783.15924722,11703.998868
1377871098,7137.488643002001,11703.998868
1377871398,6684.934020106,11703.998868
1377871698,6718.095350232,11703.998868
1377871998,6710.292684319999,11703.998868
1377872299,6710.292684319999,11703.998868
1377872599,6675.180687716001,11703.998868
1377872899,6700.5393519300005,11703.998868
1377873199,6694.687352496,11703.998868
1377873499,6686.884686584,11703.998868
1377873799,6681.03268715,11703.998868
1377874099,6681.03268715,11703.998868
1377874399,6690.786019540001,11703.998868
1377874699,6698.588685452,11703.998868
1377874999,6694.687352496,11703.998868
1377875299,6721.996683188,11703.998868
1377875599,6991.188657152,11703.998868
1377875899,6891.7046667740005,11703.998868
1377876199,6798.07267583,11703.998868
1377876499,6716.144683754001,11703.998868
1377876799,6735.651348534,11703.998868
1377877099,6714.1940172760005,11703.998868
1377877399,6702.490018408002,11703.998868
1377877699,6708.342017842,11703.998868
1377877999,6694.687352496,11703.998868
1377878299,6690.786019540001,11703.998868
1377878599,6700.5393519300005,11703.998868
1377878899,6708.342017842,11703.998868
1377879199,6694.687352496,11703.998868
1377879499,6704.440684886,11703.998868
1377879799,6682.983353628,11703.998868
1377880100,6684.934020106,11703.998868
1377880400,6700.5393519300005,11703.998868
1377880700,6747.355347402,11703.998868
1377881000,6704.440684886,11703.998868
1377881300,6712.243350798001,11703.998868
1377881600,6817.57934061,11703.998868
1377881900,6696.638018974,11703.998868
1377882200,6692.736686018,11703.998868
1377882500,6712.243350798001,11703.998868
1377882800,6702.490018408002,11703.998868
1377883100,6712.243350798001,11703.998868
1377883399,6694.687352496,11703.998868
1377883699,6681.03268715,11703.998868
1377883999,6708.342017842,11703.998868
1377884299,6694.687352496,11703.998868
1377884599,6698.588685452,11703.998868
1377884899,6696.638018974,11703.998868
1377885199,6690.786019540001,11703.998868
1377885499,6700.5393519300005,11703.998868
1377885799,6710.292684319999,11703.998868
1377886099,6708.342017842,11703.998868
1377886400,6712.243350798001,11703.998868
1377886700,6702.490018408002,11703.998868
1377887000,6696.638018974,11703.998868
1377887300,6692.736686018,11703.998868
1377887600,6704.440684886,11703.998868
1377887900,6698.588685452,11703.998868
1377888200,6686.884686584,11703.998868
1377888500,6708.342017842,11703.998868
1377888800,6679.082020672001,11703.998868
1377889100,6706.391351364,11703.998868
1377889400,6710.292684319999,11703.998868
1377889700,6712.243350798001,11703.998868
1377890000,6688.835353062001,11703.998868
1377890300,6684.934020106,11703.998868
1377890600,6716.144683754001,11703.998868
1377890900,6749.306013880001,11703.998868
1377891200,6755.1580133140005,11703.998868
1377891500,6690.786019540001,11703.998868
1377891800,6702.490018408002,11703.998868
1377892100,6681.03268715,11703.998868
1377892400,6665.427355326001,11703.998868
1377892700,6696.638018974,11703.998868
1377893000,6708.342017842,11703.998868
1377893300,6718.095350232,11703.998868
1377893600,6712.243350798001,11703.998868
1377893900,6694.687352496,11703.998868
1377894200,6681.03268715,11703.998868
1377894500,6673.230021238001,11703.998868
1377894800,6679.082020672001,11703.998868
1377895100,6710.292684319999,11703.998868
1377895400,6682.983353628,11703.998868
1377895700,6696.638018974,11703.998868
1377896000,6692.736686018,11703.998868
1377896300,6688.835353062001,11703.998868
1377896600,6684.934020106,11703.998868
1377896901,6727.848682622,11703.998868
1377897201,6702.490018408002,11703.998868
1377897501,6698.588685452,11703.998868
1377897801,6700.5393519300005,11703.998868
1377898101,6710.292684319999,11703.998868
1377898401,6720.046016710001,11703.998868
1377898701,6712.243350798001,11703.998868
1377899001,6696.638018974,11703.998868
1377899301,6702.490018408002,11703.998868
1377899601,6710.292684319999,11703.998868
1377899901,6700.5393519300005,11703.998868
