Timestamp [ms],CPU usage [MHZ],CPU capacity provisioned [MHZ]
1376512564,2808.95955648,11703.998152
1376512864,2689.968908601333,11703.998152
1376513164,1915.5543642106668,11703.998152
1376513464,994.83984292,11703.998152
1376513764,869.9971959653334,11703.998152
1376514064,1068.9651645493332,11703.998152
1376514364,1845.3303752986667,11703.998152
1376514664,1162.5971497653334,11703.998152
1376514964,1152.843817972,11703.998152
1376515264,967.5305138986664,11703.998152
1376515564,1289.3904630786667,11703.998152
1376515864,1576.1384178026667,11703.998152
1376516164,2040.3970111653327,11703.998152
1376516464,1061.1624991146666,11703.998152
1376516764,1652.214405790667,11703.998152
1376517064,1310.847793024,11703.998152
1376517365,922.6651876493332,11703.998152
1376517665,2727.0315694160004,11703.998152
1376517965,2990.3715278360005,11703.998152
1376518265,2545.61959806,11703.998152
1376518565,743.2038826520001,11703.998152
1376518865,602.7559048280001,11703.998152
1376519165,573.495909448,11703.998152
1376519465,431.09726526533336,11703.998152
1376519765,1972.1236886120005,11703.998152
1376520065,778.315877108,11703.998152
1376520365,518.8772514053334,11703.998152
1376520665,569.5945767306667,11703.998152
1376520965,491.567922384,11703.998152
1376521265,395.9852708093333,11703.998152
1376521565,2487.0996073,11703.998152
1376521865,1289.3904630786667,11703.998152
1376522165,743.2038826520001,11703.998152
1376522465,593.0025730346666,11703.998152
1376522765,729.5492181413334,11703.998152
1376523065,715.8945536306667,11703.998152
1376523365,920.7145212906668,11703.998152
1376523665,729.5492181413334,11703.998152
1376523965,1092.3731608533335,11703.998152
1376524265,1654.1650721493334,11703.998152
1376524565,813.427871564,11703.998152
1376524865,694.4372236853333,11703.998152
1376525165,3696.5127496733335,11703.998152
1376525465,710.0425545546667,11703.998152
1376525765,1340.1077884039998,11703.998152
1376526065,1392.775780088,11703.998152
1376526365,1568.3357523680002,11703.998152
1376526665,990.9385102026666,11703.998152
1376526965,1505.9144288906668,11703.998152
1376527265,1433.73977362,11703.998152
1376527565,985.0865111266666,11703.998152
1376527865,1090.4224944946666,11703.998152
1376528165,598.8545721106667,11703.998152
1376528465,612.5092366213333,11703.998152
1376528765,903.1585240626664,11703.998152
1376529065,1228.91980596,11703.998152
1376529365,1065.063831832,11703.998152
1376529666,1418.1344427506667,11703.998152
1376529966,1562.483753292,11703.998152
1376530266,1513.7170943253334,11703.998152
1376530566,2654.8569141453336,11703.998152
1376530866,1474.703767152,11703.998152
1376531166,1256.2291349813331,11703.998152
1376531466,895.355858628,11703.998152
1376531766,1193.807811504,11703.998152
1376532066,612.5092366213333,11703.998152
1376532366,1269.883799492,11703.998152
1376532666,963.6291811813334,11703.998152
1376532966,1039.7051691693332,11703.998152
1376533266,620.311902056,11703.998152
1376533566,612.5092366213333,11703.998152
1376533866,602.7559048280001,11703.998152
1376534166,682.7332255333334,11703.998152
1376534466,579.347908524,11703.998152
1376534766,614.45990298,11703.998152
1376535066,770.5132116733334,11703.998152
1376535366,721.7465527066665,11703.998152
1376535666,1254.2784686226669,11703.998152
1376535966,1447.394438130667,11703.998152
1376536266,2011.1370157853328,11703.998152
1376536566,1498.1117634560003,11703.998152
1376536866,2535.8662662666666,11703.998152
1376537166,2286.1809723573333,11703.998152
1376537466,2093.0650028493333,11703.998152
1376537766,3366.850135058666,11703.998152
1376538066,1070.915830908,11703.998152
1376538366,1092.3731608533335,11703.998152
1376538666,1675.622402094667,11703.998152
1376538967,1827.774378070667,11703.998152
1376539267,1548.8290887813332,11703.998152
1376539567,1357.663785632,11703.998152
1376539867,1613.2010786173332,11703.998152
1376540167,2096.966335566667,11703.998152
1376540466,1745.8463910066669,11703.998152
1376540766,1410.3317773160002,11703.998152
1376541066,1638.55974128,11703.998152
1376541366,2114.5223327946665,11703.998152
1376541666,1821.9223789946668,11703.998152
1376541966,1769.2543873106667,11703.998152
1376542267,397.935937168,11703.998152
1376542567,388.18260537466665,11703.998152
1376542867,514.975918688,11703.998152
1376543167,407.6892689613333,11703.998152
1376543467,364.7746090706667,11703.998152
1376543767,366.72527542933335,11703.998152
1376544067,378.42927358133335,11703.998152
1376544367,364.7746090706667,11703.998152
1376544667,368.675941788,11703.998152
1376544967,380.37993994,11703.998152
1376545267,399.8866035266667,11703.998152
1376545567,386.231939016,11703.998152
1376545867,392.083938092,11703.998152
1376546167,380.37993994,11703.998152
1376546467,388.18260537466665,11703.998152
1376546767,378.42927358133335,11703.998152
1376547067,382.3306062986667,11703.998152
1376547367,394.0346044506667,11703.998152
1376547667,405.7386026026667,11703.998152
1376547967,390.1332717333333,11703.998152
1376548267,388.18260537466665,11703.998152
1376548567,413.5412680373333,11703.998152
1376548867,364.7746090706667,11703.998152
1376549167,401.8372698853333,11703.998152
1376549467,401.8372698853333,11703.998152
1376549767,370.6266081466667,11703.998152
1376550067,397.935937168,11703.998152
1376550367,392.083938092,11703.998152
1376550667,407.6892689613333,11703.998152
1376550968,347.21861184266663,11703.998152
1376551268,358.9226099946667,11703.998152
1376551568,392.083938092,11703.998152
1376551868,392.083938092,11703.998152
1376552168,372.5772745053333,11703.998152
1376552468,407.6892689613333,11703.998152
1376552768,415.491934396,11703.998152
1376553068,384.2812726573333,11703.998152
1376553368,395.9852708093333,11703.998152
1376553668,456.455927928,11703.998152
1376553968,1008.4945074306668,11703.998152
1376554268,372.5772745053333,11703.998152
1376554568,380.37993994,11703.998152
1376554868,403.787936244,11703.998152
1376555168,399.8866035266667,11703.998152
1376555468,399.8866035266667,11703.998152
1376555768,397.935937168,11703.998152
1376556068,397.935937168,11703.998152
1376556368,423.2945998306667,11703.998152
1376556668,390.1332717333333,11703.998152
1376556968,382.3306062986667,11703.998152
1376557268,429.14659890666667,11703.998152
1376557568,423.2945998306667,11703.998152
1376557868,417.4426007546667,11703.998152
1376558168,409.63993532,11703.998152
1376558468,635.9172329253333,11703.998152
1376558768,4242.6993301,11703.998152
1376559068,403.787936244,11703.998152
1376559368,395.9852708093333,11703.998152
1376559668,575.4465758066667,11703.998152
1376559968,657.3745628706665,11703.998152
1376560268,764.6612125973334,11703.998152
1376560568,399.8866035266667,11703.998152
1376560868,431.09726526533336,11703.998152
1376561168,409.63993532,11703.998152
1376561468,372.5772745053333,11703.998152
1376561768,411.5906016786667,11703.998152
1376562068,376.4786072226667,11703.998152
1376562368,395.9852708093333,11703.998152
1376562668,358.9226099946667,11703.998152
1376562968,397.935937168,11703.998152
1376563269,397.935937168,11703.998152
1376563569,374.5279408640001,11703.998152
1376563869,386.231939016,11703.998152
1376564169,392.083938092,11703.998152
1376564469,419.39326711333325,11703.998152
1376564769,758.8092135213333,11703.998152
1376565069,415.491934396,11703.998152
1376565369,399.8866035266667,11703.998152
1376565669,436.9492643413333,11703.998152
1376565969,442.8012634173333,11703.998152
1376566269,399.8866035266667,11703.998152
1376566569,409.63993532,11703.998152
1376566869,403.787936244,11703.998152
1376567169,425.2452661893333,11703.998152
1376567469,392.083938092,11703.998152
1376567769,388.18260537466665,11703.998152
1376568069,405.7386026026667,11703.998152
1376568369,386.231939016,11703.998152
1376568669,382.3306062986667,11703.998152
1376568969,413.5412680373333,11703.998152
1376569269,1560.5330869333332,11703.998152
1376569569,686.6345582506666,11703.998152
1376569869,392.083938092,11703.998152
1376570169,380.37993994,11703.998152
1376570469,421.343933472,11703.998152
1376570769,417.4426007546667,11703.998152
1376571069,370.6266081466667,11703.998152
1376571369,411.5906016786667,11703.998152
1376571669,415.491934396,11703.998152
1376571969,399.8866035266667,11703.998152
1376572269,413.5412680373333,11703.998152
1376572569,415.491934396,11703.998152
1376572869,567.6439103719999,11703.998152
1376573169,772.4638780319999,11703.998152
1376573469,413.5412680373333,11703.998152
1376573769,395.9852708093333,11703.998152
1376574069,399.8866035266667,11703.998152
1376574369,399.8866035266667,11703.998152
1376574669,390.1332717333333,11703.998152
1376574969,388.18260537466665,11703.998152
1376575269,411.5906016786667,11703.998152
1376575569,1724.3890610613337,11703.998152
1376575869,2052.101009317333,11703.998152
1376576169,2034.545012089333,11703.998152
1376576469,1472.753100793333,11703.998152
1376576769,399.8866035266667,11703.998152
1376577069,419.39326711333325,11703.998152
1376577369,614.45990298,11703.998152
1376577669,409.63993532,11703.998152
1376577970,458.4065942866668,11703.998152
1376578270,460.3572606453333,11703.998152
1376578570,1669.770403018667,11703.998152
1376578870,532.531915916,11703.998152
1376579170,3994.9647025493337,11703.998152
1376579470,505.2225868946667,11703.998152
1376579770,390.1332717333333,11703.998152
1376580070,388.18260537466665,11703.998152
1376580370,392.083938092,11703.998152
1376580670,438.8999307,11703.998152
1376580970,1714.635729268,11703.998152
1376581270,431.09726526533336,11703.998152
1376581570,421.343933472,11703.998152
1376581870,497.41992146000007,11703.998152
1376582170,403.787936244,11703.998152
1376582470,421.343933472,11703.998152
1376582770,1133.3371543853334,11703.998152
1376583070,403.787936244,11703.998152
1376583370,411.5906016786667,11703.998152
1376583670,401.8372698853333,11703.998152
1376583970,436.9492643413333,11703.998152
1376584270,604.7065711866667,11703.998152
1376584570,988.9878438439998,11703.998152
1376584870,415.491934396,11703.998152
1376585170,397.935937168,11703.998152
1376585470,501.3212541773333,11703.998152
1376585770,395.9852708093333,11703.998152
1376586070,362.823942712,11703.998152
1376586370,2586.583591592,11703.998152
1376586670,2147.6836608920003,11703.998152
1376586970,2001.383683992,11703.998152
1376587270,1806.317048125333,11703.998152
1376587571,1782.9090518213332,11703.998152
1376587871,1862.886372526667,11703.998152
1376588171,3829.158062062667,11703.998152
1376588471,3563.867437284,11703.998152
1376588771,2036.495678448,11703.998152
1376589071,1929.2090287213337,11703.998152
1376589371,1954.567691384,11703.998152
1376589670,2278.378306922667,11703.998152
1376589970,2927.9502043586667,11703.998152
1376590270,1178.2024806346667,11703.998152
1376590570,514.975918688,11703.998152
1376590870,520.8279177640001,11703.998152
1376591170,534.4825822746666,11703.998152
1376591470,530.5812495573333,11703.998152
1376591771,2332.996964965333,11703.998152
1376592071,524.7292504813333,11703.998152
1376592371,565.6932440133334,11703.998152
1376592671,563.7425776546667,11703.998152
1376592971,591.051906676,11703.998152
1376593271,614.45990298,11703.998152
1376593571,2625.596918765333,11703.998152
1376593871,550.087913144,11703.998152
1376594171,559.8412449373333,11703.998152
1376594471,579.347908524,11703.998152
1376594771,630.0652338493334,11703.998152
1376595071,600.8052384693334,11703.998152
1376595371,1808.267714484,11703.998152
1376595671,641.7692320013334,11703.998152
1376595971,624.2132347733334,11703.998152
1376596271,633.9665665666666,11703.998152
1376596571,934.3691858013334,11703.998152
1376596871,998.7411756373334,11703.998152
1376597171,4227.093999230667,11703.998152
1376597471,1468.851768076,11703.998152
1376597771,1068.9651645493332,11703.998152
1376598071,1617.1024113346668,11703.998152
1376598371,2561.2249289293336,11703.998152
1376598671,1072.8664972666666,11703.998152
1376598971,1855.083707092,11703.998152
1376599271,1119.6824898746663,11703.998152
1376599571,1055.3105000386663,11703.998152
1376599871,1689.2770666053332,11703.998152
1376600171,1008.4945074306668,11703.998152
1376600471,1470.802434434667,11703.998152
1376600771,1942.8636932320003,11703.998152
1376601072,682.7332255333334,11703.998152
1376601372,577.3972421653334,11703.998152
1376601672,1172.3504815586666,11703.998152
1376601972,604.7065711866667,11703.998152
1376602272,1193.807811504,11703.998152
1376602572,3175.6848319093338,11703.998152
1376602872,1808.267714484,11703.998152
1376603172,1316.6997921,11703.998152
1376603472,871.947862324,11703.998152
1376603772,1874.5903706786664,11703.998152
1376604072,1051.4091673213336,11703.998152
1376604372,2145.732994533333,11703.998152
1376604672,1622.9544104106667,11703.998152
1376604972,1548.8290887813332,11703.998152
1376605272,1182.103813352,11703.998152
1376605572,1225.0184732426667,11703.998152
1376605872,1184.0544797106668,11703.998152
1376606172,1663.9184039426668,11703.998152
1376606472,1201.6104769386668,11703.998152
1376606772,879.7505277586667,11703.998152
1376607072,1121.6331562333337,11703.998152
1376607372,612.5092366213333,11703.998152
1376607672,583.2492412413334,11703.998152
1376607972,1788.7610508973337,11703.998152
1376608272,536.4332486333333,11703.998152
1376608572,869.9971959653334,11703.998152
1376608872,589.1012403173333,11703.998152
1376609172,614.45990298,11703.998152
1376609472,622.2625684146667,11703.998152
1376609772,628.1145674906666,11703.998152
1376610072,552.0385795026667,11703.998152
1376610372,534.4825822746666,11703.998152
1376610672,1384.9731146533334,11703.998152
1376610972,1277.6864649266668,11703.998152
1376611272,635.9172329253333,11703.998152
1376611572,3907.184716409333,11703.998152
1376611872,916.8131885733336,11703.998152
1376612172,1076.767829984,11703.998152
1376612472,924.615854008,11703.998152
1376612772,604.7065711866667,11703.998152
1376613072,585.1999076,11703.998152
1376613372,563.7425776546667,11703.998152
1376613672,559.8412449373333,11703.998152
1376613972,862.1945305306667,11703.998152
1376614272,645.6705647186667,11703.998152
1376614572,747.1052153693335,11703.998152
1376614872,1423.9864418266668,11703.998152
1376615172,936.31985216,11703.998152
1376615472,1137.2384871026668,11703.998152
1376615772,1281.587797644,11703.998152
1376616072,1143.0904861786669,11703.998152
1376616372,1344.0091211213332,11703.998152
1376616672,2122.324998229333,11703.998152
1376616973,1453.2464372066668,11703.998152
1376617273,1053.35983368,11703.998152
1376617573,918.763854932,11703.998152
1376617873,842.687866944,11703.998152
1376618173,676.8812264573334,11703.998152
1376618473,723.6972190653333,11703.998152
1376618773,1371.3184501426667,11703.998152
1376619073,729.5492181413334,11703.998152
1376619373,1057.2611663973332,11703.998152
1376619673,1067.0144981906667,11703.998152
1376619973,1086.5211617773334,11703.998152
1376620273,1445.443771772,11703.998152
1376620573,1849.231708016,11703.998152
1376620873,1519.5690934013337,11703.998152
1376621173,1751.6983900826665,11703.998152
1376621473,1055.3105000386663,11703.998152
1376621773,1109.9291580813335,11703.998152
1376622073,1457.147769924,11703.998152
1376622373,988.9878438439998,11703.998152
1376622673,912.911855856,11703.998152
1376622973,1558.582420574667,11703.998152
1376623273,1057.2611663973332,11703.998152
1376623573,1427.887774544,11703.998152
1376623873,1000.691841996,11703.998152
1376624173,1160.646483406667,11703.998152
1376624473,618.3612356973334,11703.998152
1376624773,784.1678761840001,11703.998152
1376625073,620.311902056,11703.998152
1376625373,905.1091904213332,11703.998152
1376625673,1080.669162701333,11703.998152
1376625973,604.7065711866667,11703.998152
1376626273,688.5852246093334,11703.998152
1376626573,1154.7944843306668,11703.998152
1376626873,1180.1531469933334,11703.998152
1376627173,949.9745166706668,11703.998152
1376627473,926.5665203666666,11703.998152
1376627773,1176.251814276,11703.998152
1376628073,1131.3864880266667,11703.998152
1376628373,1654.1650721493334,11703.998152
1376628673,1322.551791176,11703.998152
1376628973,2083.3116710560003,11703.998152
1376629273,1708.783730192,11703.998152
1376629573,1176.251814276,11703.998152
1376629873,1780.958385462667,11703.998152
1376630173,1029.951837376,11703.998152
1376630474,1158.695817048,11703.998152
1376630774,427.195932548,11703.998152
1376631074,450.603928852,11703.998152
1376631374,433.04793162400006,11703.998152
1376631674,440.85059705866666,11703.998152
1376631974,434.9985979826667,11703.998152
1376632274,530.5812495573333,11703.998152
1376632574,401.8372698853333,11703.998152
1376632874,456.455927928,11703.998152
1376633174,475.96259151466666,11703.998152
1376633474,429.14659890666667,11703.998152
1376633774,407.6892689613333,11703.998152
1376634074,417.4426007546667,11703.998152
1376634374,565.6932440133334,11703.998152
1376634674,442.8012634173333,11703.998152
1376634974,419.39326711333325,11703.998152
1376635274,407.6892689613333,11703.998152
1376635574,419.39326711333325,11703.998152
1376635874,589.1012403173333,11703.998152
1376636174,481.8145905906667,11703.998152
1376636474,419.39326711333325,11703.998152
1376636774,448.6532624933333,11703.998152
1376637074,669.0785610226666,11703.998152
1376637374,440.85059705866666,11703.998152
1376637674,411.5906016786667,11703.998152
1376637974,444.751929776,11703.998152
1376638274,425.2452661893333,11703.998152
1376638574,419.39326711333325,11703.998152
1376638874,429.14659890666667,11703.998152
1376639174,421.343933472,11703.998152
1376639474,434.9985979826667,11703.998152
1376639774,421.343933472,11703.998152
1376640074,466.2092597213333,11703.998152
1376640374,797.8225406946667,11703.998152
1376640674,403.787936244,11703.998152
1376640974,585.1999076,11703.998152
1376641275,538.383914992,11703.998152
1376641575,415.491934396,11703.998152
1376641875,394.0346044506667,11703.998152
1376642175,374.5279408640001,11703.998152
1376642475,392.083938092,11703.998152
1376642775,405.7386026026667,11703.998152
1376643075,419.39326711333325,11703.998152
1376643375,429.14659890666667,11703.998152
1376643675,415.491934396,11703.998152
1376643975,511.0745859706668,11703.998152
1376644275,711.9932209133334,11703.998152
1376644575,329.66261461466667,11703.998152
1376644875,567.6439103719999,11703.998152
1376645175,3466.3341193506662,11703.998152
1376645475,1962.3703568186663,11703.998152
1376645775,2018.93968122,11703.998152
1376646075,2091.1143364906666,11703.998152
1376646375,1798.514382690667,11703.998152
1376646675,641.7692320013334,11703.998152
1376646975,376.4786072226667,11703.998152
1376647275,386.231939016,11703.998152
1376647575,405.7386026026667,11703.998152
1376647875,366.72527542933335,11703.998152
1376648175,386.231939016,11703.998152
1376648475,331.6132809733333,11703.998152
1376648775,462.307927004,11703.998152
1376649075,376.4786072226667,11703.998152
1376649375,353.0706109186667,11703.998152
1376649675,353.0706109186667,11703.998152
1376649975,329.66261461466667,11703.998152
1376650276,372.5772745053333,11703.998152
1376650576,394.0346044506667,11703.998152
1376650876,431.09726526533336,11703.998152
1376651176,569.5945767306667,11703.998152
1376651476,347.21861184266663,11703.998152
1376651776,356.971943636,11703.998152
1376652076,349.16927820133327,11703.998152
1376652376,351.11994456,11703.998152
1376652676,353.0706109186667,11703.998152
1376652976,364.7746090706667,11703.998152
1376653276,331.6132809733333,11703.998152
1376653576,366.72527542933335,11703.998152
1376653876,374.5279408640001,11703.998152
1376654176,323.8106155386667,11703.998152
1376654476,329.66261461466667,11703.998152
1376654776,374.5279408640001,11703.998152
1376655076,333.563947332,11703.998152
1376655376,358.9226099946667,11703.998152
1376655676,1408.3811109573332,11703.998152
1376655976,530.5812495573333,11703.998152
1376656276,325.76128189733333,11703.998152
1376656576,343.3172791253333,11703.998152
1376656876,337.46528004933333,11703.998152
1376657176,337.46528004933333,11703.998152
1376657476,374.5279408640001,11703.998152
1376657776,362.823942712,11703.998152
1376658076,317.95861646266667,11703.998152
1376658376,355.0212772773333,11703.998152
1376658676,356.971943636,11703.998152
1376658976,331.6132809733333,11703.998152
1376659276,564.2999109000001,11703.998152
1376659576,585.1999076,11703.998152
1376659876,345.267945484,11703.998152
1376660176,356.971943636,11703.998152
1376660476,351.11994456,11703.998152
1376660776,317.95861646266667,11703.998152
1376661076,355.0212772773333,11703.998152
1376661376,321.85994918,11703.998152
1376661676,399.8866035266667,11703.998152
1376661976,848.5398660200001,11703.998152
1376662276,332.30994753,11703.998152
1376662576,360.87327635333327,11703.998152
1376662876,341.3666127666667,11703.998152
1376663176,345.267945484,11703.998152
1376663477,362.823942712,11703.998152
1376663777,501.3212541773333,11703.998152
1376664077,317.67994984,11703.998152
1376664377,326.03994852,11703.998152
1376664677,327.711948256,11703.998152
1376664977,1018.247839224,11703.998152
1376665277,992.8891765613334,11703.998152
1376665577,3242.007488104,11703.998152
1376665877,2079.4103383386664,11703.998152
1376666177,1588.3997492,11703.998152
1376666477,1572.237085085333,11703.998152
1376666777,2140.15966208,11703.998152
1376667077,2266.674308770667,11703.998152
1376667377,3243.67948784,11703.998152
1376667677,833.90986833,11703.998152
1376667977,341.3666127666667,11703.998152
1376668277,339.415946408,11703.998152
1376668577,298.451952876,11703.998152
1376668877,485.7159233080001,11703.998152
1376669177,934.3691858013334,11703.998152
1376669477,314.0572837453333,11703.998152
1376669777,337.46528004933333,11703.998152
1376670077,284.7972883653334,11703.998152
1376670377,314.0572837453333,11703.998152
1376670677,358.9226099946667,11703.998152
1376670977,825.131869716,11703.998152
1376671277,325.76128189733333,11703.998152
1376671577,353.0706109186667,11703.998152
1376671878,288.6986210826667,11703.998152
1376672178,335.5146136906667,11703.998152
1376672478,470.1105924386666,11703.998152
1376672778,1917.5050305693333,11703.998152
1376673078,317.95861646266667,11703.998152
1376673378,319.9092828213333,11703.998152
1376673678,349.16927820133327,11703.998152
1376673978,329.66261461466667,11703.998152
1376674278,522.7785841226666,11703.998152
1376674578,3819.404730269333,11703.998152
1376674878,1057.2611663973332,11703.998152
1376675178,793.9212079773334,11703.998152
1376675478,834.8852015093335,11703.998152
1376675778,743.2038826520001,11703.998152
1376676078,830.983868792,11703.998152
1376676378,3485.8407829373336,11703.998152
1376676678,2955.25953338,11703.998152
1376676978,2233.512980673333,11703.998152
1376677278,1472.753100793333,11703.998152
1376677578,1968.2223558946664,11703.998152
1376677878,2855.775549088,11703.998152
1376678178,3201.0434945720003,11703.998152
1376678478,4230.995331948,11703.998152
1376678778,3099.608843921333,11703.998152
1376679078,3044.990185878667,11703.998152
1376679378,3002.075525988,11703.998152
1376679679,2444.1849474093337,11703.998152
1376679979,1724.3890610613337,11703.998152
1376680279,1587.8424159546669,11703.998152
1376680579,2457.83961192,11703.998152
1376680879,1137.2384871026668,11703.998152
1376681179,1146.991818896,11703.998152
1376681479,1106.027825364,11703.998152
1376681779,1308.8971266653332,11703.998152
1376682079,1373.2691165013332,11703.998152
1376682379,1148.9424852546667,11703.998152
1376682679,1502.0130961733332,11703.998152
1376682979,1133.3371543853334,11703.998152
1376683279,561.791911296,11703.998152
1376683579,2161.3383254026667,11703.998152
1376683879,1242.5744704706667,11703.998152
1376684179,733.4505508586667,11703.998152
1376684479,661.275895588,11703.998152
1376684779,803.6745397706666,11703.998152
1376685079,1047.507834604,11703.998152
1376685379,1574.1877514439998,11703.998152
1376685679,1919.455696928,11703.998152
1376685979,2422.727617464,11703.998152
1376686279,1995.531684916,11703.998152
1376686579,1667.81973666,11703.998152
1376686879,2383.7142902906667,11703.998152
1376687179,1962.3703568186663,11703.998152
1376687479,912.911855856,11703.998152
1376687779,538.383914992,11703.998152
1376688079,643.71989836,11703.998152
1376688379,604.7065711866667,11703.998152
1376688679,700.2892227613333,11703.998152
1376688979,1474.703767152,11703.998152
1376689279,1318.650458458667,11703.998152
1376689579,910.9611894973334,11703.998152
1376689879,988.9878438439998,11703.998152
1376690179,1252.327802264,11703.998152
1376690479,1299.143794872,11703.998152
1376690779,1603.447746824,11703.998152
1376691079,1148.9424852546667,11703.998152
1376691379,1414.233110033333,11703.998152
1376691679,815.3785379226666,11703.998152
1376691979,1146.991818896,11703.998152
1376692279,1839.4783762226664,11703.998152
1376692579,1989.6796858400005,11703.998152
1376692879,1960.41969046,11703.998152
1376693179,2317.391634096,11703.998152
1376693480,2067.706340186667,11703.998152
1376693780,1541.026423346667,11703.998152
1376694080,1349.861120197333,11703.998152
1376694380,2200.351652576,11703.998152
1376694680,1264.031800416,11703.998152
1376694980,1669.770403018667,11703.998152
1376695280,1474.703767152,11703.998152
1376695580,1361.5651183493333,11703.998152
1376695880,1642.4610739973332,11703.998152
1376696180,2110.621000077333,11703.998152
1376696480,2807.008890121333,11703.998152
1376696780,1687.3264002466667,11703.998152
1376697080,1615.151744976,11703.998152
1376697380,1104.0771590053334,11703.998152
1376697680,1133.3371543853334,11703.998152
1376697980,3382.455465928,11703.998152
1376698280,1935.061027797333,11703.998152
1376698580,1541.026423346667,11703.998152
1376698880,1537.1250906293333,11703.998152
1376699180,1827.774378070667,11703.998152
1376699480,1275.735798568,11703.998152
1376699780,1412.2824436746669,11703.998152
1376700080,1408.3811109573332,11703.998152
1376700380,1765.3530545933331,11703.998152
1376700680,1845.3303752986667,11703.998152
1376700980,2093.0650028493333,11703.998152
1376701280,2100.867668284,11703.998152
1376701581,1851.1823743746668,11703.998152
1376701881,1958.4690241013327,11703.998152
1376702181,1837.527709864,11703.998152
1376702481,2412.974285670666,11703.998152
1376702781,2083.3116710560003,11703.998152
1376703081,2069.6570065453334,11703.998152
1376703381,1896.047700624,11703.998152
1376703681,1938.962360514667,11703.998152
1376703981,1860.9357061680005,11703.998152
1376704281,2352.503628552,11703.998152
1376704581,1365.4664510666669,11703.998152
1376704881,979.2345120506668,11703.998152
1376705181,1609.2997459,11703.998152
1376705481,1094.323827212,11703.998152
1376705781,1306.946460306667,11703.998152
1376706081,1008.4945074306668,11703.998152
1376706381,805.6252061293334,11703.998152
1376706681,1281.587797644,11703.998152
1376706981,1006.543841072,11703.998152
1376707281,1072.8664972666666,11703.998152
1376707581,1254.2784686226669,11703.998152
1376707881,2356.4049612693334,11703.998152
1376708181,2046.2490102413333,11703.998152
1376708481,1494.210430738667,11703.998152
1376708781,1779.0077191039998,11703.998152
1376709081,2637.3009169173333,11703.998152
1376709381,2057.953008393333,11703.998152
1376709681,3509.248779241333,11703.998152
1376709981,3335.63947332,11703.998152
1376710281,2409.0729529533337,11703.998152
1376710581,2073.558339262667,11703.998152
1376710881,2173.042323554667,11703.998152
1376711181,2299.835636868,11703.998152
1376711481,1942.8636932320003,11703.998152
1376711781,1849.231708016,11703.998152
1376712082,1829.725044429333,11703.998152
1376712382,1560.5330869333332,11703.998152
1376712682,2350.552962193333,11703.998152
1376712982,2295.934304150667,11703.998152
1376713282,1230.8704723186668,11703.998152
1376713582,866.0958632480001,11703.998152
1376713882,1722.4383947026663,11703.998152
1376714182,1652.214405790667,11703.998152
1376714482,981.1851784093332,11703.998152
1376714782,885.6025268346666,11703.998152
1376715082,1365.4664510666669,11703.998152
1376715382,1693.1783993226668,11703.998152
1376715682,1591.743748672,11703.998152
1376715982,1697.0797320400002,11703.998152
1376716282,1626.855743128,11703.998152
1376716582,1732.1917264960002,11703.998152
1376716882,1872.63970432,11703.998152
1376717182,1851.1823743746668,11703.998152
1376717482,2157.4369926853333,11703.998152
1376717782,2867.47954724,11703.998152
1376718082,2231.5623143146668,11703.998152
1376718382,1431.7891072613334,11703.998152
1376718682,1500.062429814667,11703.998152
1376718982,1562.483753292,11703.998152
1376719282,1535.1744242706668,11703.998152
1376719582,2769.9462293066667,11703.998152
1376719882,2504.655604528,11703.998152
1376720182,2358.355627628,11703.998152
1376720482,2319.3423004546667,11703.998152
1376720782,2420.7769511053334,11703.998152
1376721082,2598.287589744,11703.998152
1376721382,2561.2249289293336,11703.998152
1376721682,1950.6663586666668,11703.998152
1376721982,2477.346275506666,11703.998152
1376722282,1921.4063632866664,11703.998152
1376722582,1258.17980134,11703.998152
1376722882,1420.0851091093334,11703.998152
1376723182,2432.4809492573336,11703.998152
1376723482,2740.6862339266663,11703.998152
1376723782,2674.363577732,11703.998152
1376724082,3189.33949642,11703.998152
1376724382,3534.607441904,11703.998152
1376724682,3222.500824517333,11703.998152
1376724982,2736.784901209334,11703.998152
1376725282,2703.623573112,11703.998152
1376725582,2229.611647956,11703.998152
1376725882,1784.8597181799998,11703.998152
1376726182,1847.2810416573327,11703.998152
1376726482,2141.831661816,11703.998152
1376726782,2693.8702413186666,11703.998152
1376727082,2358.355627628,11703.998152
1376727382,2799.2062246866662,11703.998152
1376727682,1833.626377146667,11703.998152
1376727982,1720.487728344,11703.998152
1376728282,860.243864172,11703.998152
1376728583,1211.363808732,11703.998152
1376728883,899.2571913453335,11703.998152
1376729183,780.2665434666666,11703.998152
1376729483,905.1091904213332,11703.998152
1376729783,854.391865096,11703.998152
1376730083,949.9745166706668,11703.998152
1376730383,2875.282212674667,11703.998152
1376730683,3522.9034437520004,11703.998152
1376730983,3388.3074650040003,11703.998152
1376731283,2352.503628552,11703.998152
1376731583,2204.252985293333,11703.998152
1376731883,2487.0996073,11703.998152
1376732183,2502.7049381693337,11703.998152
1376732483,2998.1741932706664,11703.998152
1376732783,3643.8447579893336,11703.998152
1376733083,3758.934073150667,11703.998152
1376733383,3058.644850389333,11703.998152
1376733683,3489.7421156546666,11703.998152
1376733983,3257.612818973334,11703.998152
1376734283,2545.61959806,11703.998152
1376734583,2680.215576808,11703.998152
1376734883,2547.5702644186663,11703.998152
1376735184,2284.2303059986666,11703.998152
1376735484,1652.214405790667,11703.998152
1376735784,2040.3970111653327,11703.998152
1376736084,2424.6782838226663,11703.998152
1376736384,2073.558339262667,11703.998152
1376736684,1903.8503660586664,11703.998152
1376736984,1999.4330176333333,11703.998152
1376737284,2126.2263309466666,11703.998152
1376737584,3440.975456688,11703.998152
1376737884,2098.9170019253334,11703.998152
1376738184,1022.1491719413336,11703.998152
1376738484,1176.251814276,11703.998152
1376738784,1127.485155309333,11703.998152
1376739084,1014.3465065066666,11703.998152
1376739384,2705.5742394706667,11703.998152
1376739684,3156.1781683226664,11703.998152
1376739984,2771.896895665333,11703.998152
1376740284,3105.460842997333,11703.998152
1376740584,2787.502226534667,11703.998152
1376740884,2332.996964965333,11703.998152
1376741184,1769.2543873106667,11703.998152
1376741484,1786.8103845386668,11703.998152
1376741784,1704.882397474667,11703.998152
1376742084,2783.600893817333,11703.998152
1376742384,2253.01964426,11703.998152
1376742684,1260.1304676986667,11703.998152
1376742984,875.8491950413332,11703.998152
1376743284,760.7598798800001,11703.998152
1376743584,797.8225406946667,11703.998152
1376743885,778.315877108,11703.998152
1376744185,920.7145212906668,11703.998152
1376744485,1207.462476014667,11703.998152
1376744785,2153.535659968,11703.998152
1376745085,1462.999769,11703.998152
1376745385,1710.7343965506668,11703.998152
1376745685,1605.398413182667,11703.998152
1376745985,1502.0130961733332,11703.998152
1376746285,1369.3677837839998,11703.998152
1376746585,1595.6450813893334,11703.998152
1376746885,891.4545259106666,11703.998152
1376747185,864.1451968893334,11703.998152
1376747485,741.2532162933334,11703.998152
1376747785,778.315877108,11703.998152
1376748085,1016.2971728653334,11703.998152
1376748385,1312.7984593826666,11703.998152
1376748685,749.0558817280001,11703.998152
1376748985,1199.65981058,11703.998152
1376749285,316.00795010400003,11703.998152
1376749585,331.6132809733333,11703.998152
1376749885,429.14659890666667,11703.998152
1376750185,612.5092366213333,11703.998152
1376750485,421.343933472,11703.998152
1376750785,302.35328559333334,11703.998152
1376751085,339.415946408,11703.998152
1376751385,1386.923781012,11703.998152
1376751685,544.235914068,11703.998152
1376751985,3115.214174790666,11703.998152
1376752285,419.39326711333325,11703.998152
1376752586,419.39326711333325,11703.998152
1376752886,335.5146136906667,11703.998152
1376753186,319.9092828213333,11703.998152
1376753485,462.307927004,11703.998152
1376753785,1351.811786556,11703.998152
1376754085,372.5772745053333,11703.998152
1376754385,339.415946408,11703.998152
1376754685,353.0706109186667,11703.998152
1376754985,355.0212772773333,11703.998152
1376755285,442.8012634173333,11703.998152
1376755585,955.8265157466666,11703.998152
1376755885,388.18260537466665,11703.998152
1376756185,395.9852708093333,11703.998152
1376756485,329.66261461466667,11703.998152
1376756785,317.95861646266667,11703.998152
1376757085,462.307927004,11703.998152
1376757385,791.9705416186666,11703.998152
1376757685,310.155951028,11703.998152
1376757985,353.0706109186667,11703.998152
1376758285,347.21861184266663,11703.998152
1376758585,390.1332717333333,11703.998152
1376758885,493.5185887426667,11703.998152
1376759186,4833.751236776,11703.998152
1376759486,3023.532855933334,11703.998152
1376759786,2444.1849474093337,11703.998152
1376760086,1365.4664510666669,11703.998152
1376760386,977.283845692,11703.998152
1376760686,2625.596918765333,11703.998152
1376760986,3612.634096250666,11703.998152
1376761286,1794.613049973333,11703.998152
1376761586,1496.1610970973334,11703.998152
1376761886,1221.1171405253333,11703.998152
1376762186,1115.7811571573334,11703.998152
1376762486,1849.231708016,11703.998152
1376762786,2079.4103383386664,11703.998152
1376763086,1264.031800416,11703.998152
1376763386,1248.4264695466668,11703.998152
1376763686,981.1851784093332,11703.998152
1376763986,1427.887774544,11703.998152
1376764286,1835.5770435053328,11703.998152
1376764586,2645.103582352,11703.998152
1376764886,1658.0664048666667,11703.998152
1376765186,1665.8690703013333,11703.998152
1376765486,1511.766427966667,11703.998152
1376765786,3160.07950104,11703.998152
1376766086,4638.684600909333,11703.998152
1376766386,4137.3633467320005,11703.998152
1376766686,2022.8410139373327,11703.998152
1376766986,2754.3408984373336,11703.998152
1376767286,4098.350019558667,11703.998152
1376767586,3415.616794025333,11703.998152
1376767886,3899.3820509746665,11703.998152
1376768187,3109.362175714667,11703.998152
1376768487,1753.6490564413334,11703.998152
1376768787,2188.647654424,11703.998152
1376769087,2173.042323554667,11703.998152
1376769387,1203.5611432973333,11703.998152
1376769687,1106.027825364,11703.998152
1376769987,3875.974054670666,11703.998152
1376770287,1675.622402094667,11703.998152
1376770587,3388.3074650040003,11703.998152
1376770887,3064.496849465333,11703.998152
1376771187,1950.6663586666668,11703.998152
1376771487,3503.396780165333,11703.998152
1376771787,3731.624744129334,11703.998152
1376772087,3275.1688162013334,11703.998152
1376772387,2631.448917841333,11703.998152
1376772687,2383.7142902906667,11703.998152
1376772987,2124.275664588,11703.998152
1376773287,1896.047700624,11703.998152
1376773587,1316.6997921,11703.998152
1376773887,1022.1491719413336,11703.998152
1376774187,959.727848464,11703.998152
1376774487,1252.327802264,11703.998152
1376774787,793.9212079773334,11703.998152
1376775087,1121.6331562333337,11703.998152
1376775387,1938.962360514667,11703.998152
1376775687,1244.5251368293334,11703.998152
1376775988,1076.767829984,11703.998152
1376776288,848.5398660200001,11703.998152
1376776588,1180.1531469933334,11703.998152
1376776891,1860.9357061680005,11703.998152
1376777191,2159.387659044,11703.998152
1376777491,1839.4783762226664,11703.998152
1376777791,1841.4290425813333,11703.998152
1376778091,1985.7783531226669,11703.998152
1376778391,1714.635729268,11703.998152
1376778691,2151.584993609333,11703.998152
1376778991,2288.131638716,11703.998152
1376779291,1780.958385462667,11703.998152
1376779591,1755.5997228,11703.998152
1376779891,1585.891749596,11703.998152
1376780191,1308.8971266653332,11703.998152
1376780491,1107.9784917226666,11703.998152
1376780791,1938.962360514667,11703.998152
1376781091,1324.5024575346667,11703.998152
1376781391,946.0731839533332,11703.998152
1376781691,967.5305138986664,11703.998152
1376781991,1486.407765304,11703.998152
1376782291,2118.4236655120003,11703.998152
1376782591,1172.3504815586666,11703.998152
1376782891,809.5265388466667,11703.998152
1376783191,1166.4984824826668,11703.998152
1376783491,957.7771821053334,11703.998152
1376783791,717.8452199893334,11703.998152
1376784091,830.983868792,11703.998152
1376784392,2795.3048919693338,11703.998152
1376784692,571.5452430893333,11703.998152
1376784992,587.1505739586667,11703.998152
1376785292,606.6572375453334,11703.998152
1376785592,780.2665434666666,11703.998152
1376785892,871.947862324,11703.998152
1376786191,686.6345582506666,11703.998152
1376786491,649.571897436,11703.998152
1376786791,651.5225637946667,11703.998152
1376787091,754.907880804,11703.998152
1376787391,920.7145212906668,11703.998152
1376787691,832.9345351506666,11703.998152
1376787991,862.1945305306667,11703.998152
1376788291,552.0385795026667,11703.998152
1376788591,610.5585702626666,11703.998152
1376788891,661.275895588,11703.998152
1376789191,838.7865342266665,11703.998152
1376789491,973.3825129746666,11703.998152
1376789791,889.5038595519999,11703.998152
1376790092,1303.045127589333,11703.998152
1376790392,1158.695817048,11703.998152
1376790692,1096.274493570667,11703.998152
1376790992,1427.887774544,11703.998152
1376791292,1656.1157385079998,11703.998152
1376791592,1728.2903937786668,11703.998152
1376791892,1201.6104769386668,11703.998152
1376792192,1464.950435358667,11703.998152
1376792492,1558.582420574667,11703.998152
1376792792,1880.4423697546663,11703.998152
1376793092,2877.2328790333336,11703.998152
1376793392,3284.9221479946664,11703.998152
1376793692,2637.3009169173333,11703.998152
1376793992,1962.3703568186663,11703.998152
1376794292,1816.0703799186667,11703.998152
1376794592,1232.8211386773337,11703.998152
1376794892,1121.6331562333337,11703.998152
1376795192,1137.2384871026668,11703.998152
1376795492,889.5038595519999,11703.998152
1376795792,1158.695817048,11703.998152
1376796092,1788.7610508973337,11703.998152
1376796392,1552.7304214986666,11703.998152
1376796692,1451.2957708479998,11703.998152
1376796992,1505.9144288906668,11703.998152
1376797292,1277.6864649266668,11703.998152
1376797592,1542.9770897053331,11703.998152
1376797893,2100.867668284,11703.998152
1376798193,1763.402388234667,11703.998152
1376798493,1689.2770666053332,11703.998152
1376798793,1866.787705244,11703.998152
1376799093,2063.8050074693333,11703.998152
1376799393,1369.3677837839998,11703.998152
1376799693,1172.3504815586666,11703.998152
1376799993,1264.031800416,11703.998152
1376800293,1422.035775468,11703.998152
1376800593,2100.867668284,11703.998152
1376800893,1940.913026873333,11703.998152
1376801193,2996.2235269120006,11703.998152
1376801493,3064.496849465333,11703.998152
1376801793,2565.1262616466665,11703.998152
1376802093,2588.5342579506664,11703.998152
1376802393,3058.644850389333,11703.998152
1376802693,3359.047469624,11703.998152
1376802993,2974.7661969666665,11703.998152
1376803293,2243.266312466667,11703.998152
1376803593,2256.9209769773333,11703.998152
1376803893,2504.655604528,11703.998152
1376804193,1503.963762532,11703.998152
1376804493,1324.5024575346667,11703.998152
1376804793,1390.8251137293337,11703.998152
1376805093,1591.743748672,11703.998152
1376805393,1304.995793948,11703.998152
1376805693,1308.8971266653332,11703.998152
1376805993,1347.9104538386666,11703.998152
1376806293,930.04985315,11703.998152
1376806593,869.9971959653334,11703.998152
1376806893,965.57984754,11703.998152
1376807193,593.0025730346666,11703.998152
1376807493,612.5092366213333,11703.998152
1376807793,825.131869716,11703.998152
1376808093,1000.691841996,11703.998152
1376808393,951.9251830293332,11703.998152
1376808693,1049.458500962667,11703.998152
1376808993,864.1451968893334,11703.998152
1376809293,893.4051922693334,11703.998152
1376809593,834.8852015093335,11703.998152
1376809894,1107.9784917226666,11703.998152
1376810194,821.2305369986666,11703.998152
1376810494,791.9705416186666,11703.998152
1376810794,860.243864172,11703.998152
1376811094,988.9878438439998,11703.998152
1376811394,868.0465296066666,11703.998152
1376811694,827.0825360746667,11703.998152
1376811994,823.1812033573334,11703.998152
1376812294,827.0825360746667,11703.998152
1376812594,795.871874336,11703.998152
1376812894,793.9212079773334,11703.998152
1376813194,1098.2251599293334,11703.998152
1376813494,1033.8531700933336,11703.998152
1376813794,953.875849388,11703.998152
1376814094,854.391865096,11703.998152
1376814394,733.4505508586667,11703.998152
1376814694,655.4238965119999,11703.998152
1376814994,1106.027825364,11703.998152
1376815294,1063.1131654733333,11703.998152
1376815594,1427.887774544,11703.998152
1376815894,1106.027825364,11703.998152
1376816194,1480.555766228,11703.998152
1376816494,1379.1211155773333,11703.998152
1376816794,1022.1491719413336,11703.998152
1376817094,795.871874336,11703.998152
1376817394,1043.6065018866666,11703.998152
1376817694,1070.915830908,11703.998152
1376817994,1347.9104538386666,11703.998152
1376818294,1439.591772696,11703.998152
1376818594,1718.5370619853334,11703.998152
1376818894,1841.4290425813333,11703.998152
1376819194,1771.2050536693332,11703.998152
1376819494,1956.518357742667,11703.998152
1376819794,1819.971712636,11703.998152
1376820094,1652.214405790667,11703.998152
1376820394,1763.402388234667,11703.998152
1376820694,2237.414313390667,11703.998152
1376820994,1634.6584085626666,11703.998152
1376821294,2141.831661816,11703.998152
1376821594,1468.851768076,11703.998152
1376821894,2196.4503198586667,11703.998152
1376822194,2444.1849474093337,11703.998152
1376822494,2450.0369464853334,11703.998152
1376822794,2838.21955186,11703.998152
1376823094,2805.0582237626663,11703.998152
1376823394,3035.236854085333,11703.998152
1376823694,3349.294137830666,11703.998152
1376823995,3850.615392008,11703.998152
1376824295,3952.0500426586655,11703.998152
1376824595,4369.492643413334,11703.998152
1376824895,3844.763392932,11703.998152
1376825195,4115.906016786666,11703.998152
1376825495,3595.0780990226667,11703.998152
1376825795,3146.424836529334,11703.998152
1376826095,3238.1061553866666,11703.998152
1376826395,2754.3408984373336,11703.998152
1376826695,2266.674308770667,11703.998152
1376826995,2541.718265342666,11703.998152
1376827295,2557.323596212,11703.998152
1376827595,1207.462476014667,11703.998152
1376827895,990.9385102026666,11703.998152
1376828195,1494.210430738667,11703.998152
1376828495,2775.798228382667,11703.998152
1376828795,1780.958385462667,11703.998152
1376829095,1574.1877514439998,11703.998152
1376829395,2247.167645184,11703.998152
1376829695,2650.955581428,11703.998152
1376829995,1767.303720952,11703.998152
1376830295,953.875849388,11703.998152
1376830595,891.4545259106666,11703.998152
1376830895,1090.4224944946666,11703.998152
1376831195,1868.7383716026668,11703.998152
1376831495,912.911855856,11703.998152
1376831796,372.5772745053333,11703.998152
1376832096,614.45990298,11703.998152
1376832396,883.651860476,11703.998152
1376832696,429.14659890666667,11703.998152
1376832996,1695.1290656813333,11703.998152
1376833296,1558.582420574667,11703.998152
1376833596,1262.0811340573334,11703.998152
1376833896,1308.8971266653332,11703.998152
1376834196,1548.8290887813332,11703.998152
1376834495,1628.806409486667,11703.998152
1376834795,4371.443309772,11703.998152
1376835095,544.235914068,11703.998152
1376835395,688.5852246093334,11703.998152
1376835695,401.8372698853333,11703.998152
1376835995,403.787936244,11703.998152
1376836295,462.307927004,11703.998152
1376836595,622.2625684146667,11703.998152
1376836895,368.675941788,11703.998152
1376837195,364.7746090706667,11703.998152
1376837495,612.5092366213333,11703.998152
1376837795,1328.403790252,11703.998152
1376838096,1736.0930592133332,11703.998152
1376838396,2091.1143364906666,11703.998152
1376838696,438.8999307,11703.998152
1376838996,380.37993994,11703.998152
1376839296,374.5279408640001,11703.998152
1376839596,384.2812726573333,11703.998152
1376839896,497.41992146000007,11703.998152
1376840196,1039.7051691693332,11703.998152
1376840496,395.9852708093333,11703.998152
1376840796,374.5279408640001,11703.998152
1376841096,360.87327635333327,11703.998152
1376841396,372.5772745053333,11703.998152
1376841696,520.8279177640001,11703.998152
1376841996,862.1945305306667,11703.998152
1376842296,479.863924232,11703.998152
1376842596,345.267945484,11703.998152
1376842896,372.5772745053333,11703.998152
1376843196,343.3172791253333,11703.998152
1376843496,470.1105924386666,11703.998152
1376843796,583.2492412413334,11703.998152
1376844096,425.2452661893333,11703.998152
1376844396,374.5279408640001,11703.998152
1376844696,388.18260537466665,11703.998152
1376844996,360.87327635333327,11703.998152
1376845296,731.4998845,11703.998152
1376845596,1894.0970342653336,11703.998152
1376845896,351.11994456,11703.998152
1376846196,370.6266081466667,11703.998152
1376846496,388.18260537466665,11703.998152
1376846796,397.935937168,11703.998152
1376847096,725.6478854239999,11703.998152
1376847396,2504.655604528,11703.998152
1376847696,1111.87982444,11703.998152
1376847996,384.2812726573333,11703.998152
1376848296,374.5279408640001,11703.998152
1376848596,368.675941788,11703.998152
1376848896,745.1545490106666,11703.998152
1376849196,2350.552962193333,11703.998152
1376849496,973.3825129746666,11703.998152
1376849796,452.55459521066666,11703.998152
1376850096,364.7746090706667,11703.998152
1376850396,413.5412680373333,11703.998152
1376850696,864.1451968893334,11703.998152
1376850996,1304.995793948,11703.998152
1376851296,674.9305600986667,11703.998152
1376851596,505.2225868946667,11703.998152
1376851896,366.72527542933335,11703.998152
1376852196,374.5279408640001,11703.998152
1376852496,733.4505508586667,11703.998152
1376852796,1152.843817972,11703.998152
1376853096,368.675941788,11703.998152
1376853396,376.4786072226667,11703.998152
1376853697,356.971943636,11703.998152
1376853996,378.42927358133335,11703.998152
1376854297,565.6932440133334,11703.998152
1376854597,427.195932548,11703.998152
1376854897,376.4786072226667,11703.998152
1376855197,431.09726526533336,11703.998152
1376855497,355.0212772773333,11703.998152
1376855797,353.0706109186667,11703.998152
1376856097,770.5132116733334,11703.998152
1376856397,1145.0411525373331,11703.998152
1376856697,440.85059705866666,11703.998152
1376856997,477.9132578733333,11703.998152
1376857297,456.455927928,11703.998152
1376857597,477.9132578733333,11703.998152
1376857897,776.3652107493333,11703.998152
1376858197,544.235914068,11703.998152
1376858497,409.63993532,11703.998152
1376858797,444.751929776,11703.998152
1376859097,1256.2291349813331,11703.998152
1376859397,1394.726446446667,11703.998152
1376859697,1706.8330638333332,11703.998152
1376859997,1209.4131423733334,11703.998152
1376860297,395.9852708093333,11703.998152
1376860597,1006.543841072,11703.998152
1376860897,776.3652107493333,11703.998152
1376861197,602.7559048280001,11703.998152
1376861497,1102.1264926466663,11703.998152
1376861797,1283.5384640026668,11703.998152
1376862097,606.6572375453334,11703.998152
1376862397,706.1412218373334,11703.998152
1376862697,616.4105693386667,11703.998152
1376862997,458.4065942866668,11703.998152
1376863298,940.2211848773331,11703.998152
1376863598,1096.274493570667,11703.998152
1376863898,680.7825591746666,11703.998152
1376864198,362.823942712,11703.998152
1376864498,388.18260537466665,11703.998152
1376864798,360.87327635333327,11703.998152
1376865098,657.3745628706665,11703.998152
1376865398,657.3745628706665,11703.998152
1376865698,384.2812726573333,11703.998152
1376865998,587.1505739586667,11703.998152
1376866299,532.531915916,11703.998152
1376866599,368.675941788,11703.998152
1376866899,873.8985286826667,11703.998152
1376867199,881.7011941173333,11703.998152
1376867500,530.5812495573333,11703.998152
1376867801,395.9852708093333,11703.998152
1376868101,672.97989374,11703.998152
1376868401,409.63993532,11703.998152
1376868701,723.6972190653333,11703.998152
1376869001,434.9985979826667,11703.998152
1376869301,403.787936244,11703.998152
1376869601,419.39326711333325,11703.998152
1376869901,444.751929776,11703.998152
1376870201,567.6439103719999,11703.998152
1376870501,864.1451968893334,11703.998152
1376870801,2578.7809261573334,11703.998152
1376871101,813.427871564,11703.998152
1376871401,868.0465296066666,11703.998152
1376871701,912.911855856,11703.998152
1376872001,1041.655835528,11703.998152
1376872301,1090.4224944946666,11703.998152
1376872601,725.6478854239999,11703.998152
1376872901,651.5225637946667,11703.998152
1376873201,370.6266081466667,11703.998152
1376873501,397.935937168,11703.998152
1376873801,513.0252523293333,11703.998152
1376874101,505.2225868946667,11703.998152
1376874401,503.271920536,11703.998152
1376874701,388.18260537466665,11703.998152
1376875001,511.0745859706668,11703.998152
1376875301,680.7825591746666,11703.998152
1376875601,446.7025961346667,11703.998152
1376875901,680.7825591746666,11703.998152
1376876201,466.2092597213333,11703.998152
1376876501,567.6439103719999,11703.998152
1376876801,477.9132578733333,11703.998152
1376877101,559.8412449373333,11703.998152
1376877401,489.61725602533335,11703.998152
1376877701,854.391865096,11703.998152
1376878001,778.315877108,11703.998152
1376878302,710.0425545546667,11703.998152
1376878602,472.0612587973334,11703.998152
1376878902,524.7292504813333,11703.998152
1376879202,425.2452661893333,11703.998152
1376879502,606.6572375453334,11703.998152
1376879802,395.9852708093333,11703.998152
1376880102,456.455927928,11703.998152
1376880402,821.2305369986666,11703.998152
1376880702,431.09726526533336,11703.998152
1376881002,614.45990298,11703.998152
1376881302,559.8412449373333,11703.998152
1376881602,534.4825822746666,11703.998152
1376881902,827.0825360746667,11703.998152
1376882202,801.723873412,11703.998152
1376882502,782.2172098253334,11703.998152
1376882802,1258.17980134,11703.998152
1376883102,1453.2464372066668,11703.998152
1376883402,1148.9424852546667,11703.998152
1376883702,1084.5704954186665,11703.998152
1376884002,1215.2651414493332,11703.998152
1376884302,1357.663785632,11703.998152
1376884602,1039.7051691693332,11703.998152
1376884902,1273.7851322093331,11703.998152
1376885202,778.315877108,11703.998152
1376885502,713.943887272,11703.998152
1376885802,433.04793162400006,11703.998152
1376886102,790.0198752599999,11703.998152
1376886402,626.163901132,11703.998152
1376886702,862.1945305306667,11703.998152
1376887002,579.347908524,11703.998152
1376887302,522.7785841226666,11703.998152
1376887602,524.7292504813333,11703.998152
1376887902,1328.403790252,11703.998152
1376888202,1780.958385462667,11703.998152
1376888502,1765.3530545933331,11703.998152
1376888802,1743.895724648,11703.998152
1376889102,1999.4330176333333,11703.998152
1376889403,1587.8424159546669,11703.998152
1376889703,1187.9558124280002,11703.998152
1376890003,1123.583822592,11703.998152
1376890303,1297.1931285133332,11703.998152
1376890603,1363.5157847080002,11703.998152
1376890903,1406.4304445986668,11703.998152
1376891203,1299.143794872,11703.998152
1376891503,1219.1664741666668,11703.998152
1376891803,1638.55974128,11703.998152
1376892103,1576.1384178026667,11703.998152
1376892403,1556.631754216,11703.998152
1376892703,1583.9410832373333,11703.998152
1376893003,1868.7383716026668,11703.998152
1376893303,1913.603697852,11703.998152
1376893603,1960.41969046,11703.998152
1376893903,2204.252985293333,11703.998152
1376894203,1234.7718050360002,11703.998152
1376894503,614.45990298,11703.998152
1376894803,425.2452661893333,11703.998152
1376895103,438.8999307,11703.998152
1376895403,1336.206455686667,11703.998152
1376895703,1193.807811504,11703.998152
1376896003,1710.7343965506668,11703.998152
1376896304,1640.5104076386667,11703.998152
1376896604,1765.3530545933331,11703.998152
1376896904,1843.37970894,11703.998152
1376897204,1548.8290887813332,11703.998152
1376897504,1468.851768076,11703.998152
1376897804,1304.995793948,11703.998152
1376898104,1503.963762532,11703.998152
1376898404,1759.5010555173335,11703.998152
1376898704,1683.425067529333,11703.998152
1376899004,1373.2691165013332,11703.998152
1376899304,1599.5464141066668,11703.998152
1376899604,1548.8290887813332,11703.998152
1376899904,1295.2424621546668,11703.998152
1376900204,1431.7891072613334,11703.998152
1376900504,1145.0411525373331,11703.998152
1376900804,1478.6050998693331,11703.998152
1376901104,1874.5903706786664,11703.998152
1376901404,1944.8143595906668,11703.998152
1376901704,1622.9544104106667,11703.998152
1376902004,444.751929776,11703.998152
1376902304,669.0785610226666,11703.998152
1376902604,550.087913144,11703.998152
1376902904,450.603928852,11703.998152
1376903204,1585.891749596,11703.998152
1376903504,1408.3811109573332,11703.998152
1376903804,374.5279408640001,11703.998152
1376904104,793.9212079773334,11703.998152
1376904404,3692.611416956,11703.998152
1376904704,353.0706109186667,11703.998152
1376905004,355.0212772773333,11703.998152
1376905304,518.8772514053334,11703.998152
1376905604,887.5531931933334,11703.998152
1376905904,969.4811802573332,11703.998152
1376906204,797.8225406946667,11703.998152
1376906504,811.4772052053333,11703.998152
1376906804,721.7465527066665,11703.998152
1376907104,774.4145443906666,11703.998152
1376907404,821.2305369986666,11703.998152
1376907704,842.687866944,11703.998152
1376908004,864.1451968893334,11703.998152
1376908304,1004.5931747133334,11703.998152
1376908604,1068.9651645493332,11703.998152
1376908904,1078.7184963426666,11703.998152
1376909204,1070.915830908,11703.998152
1376909504,1107.9784917226666,11703.998152
1376909804,1111.87982444,11703.998152
1376910104,959.727848464,11703.998152
1376910404,1119.6824898746663,11703.998152
1376910705,862.1945305306667,11703.998152
1376911005,840.7372005853333,11703.998152
1376911305,858.2931978133333,11703.998152
1376911605,877.7998613999999,11703.998152
1376911905,881.7011941173333,11703.998152
1376912205,729.5492181413334,11703.998152
1376912505,372.5772745053333,11703.998152
1376912805,372.5772745053333,11703.998152
1376913105,358.9226099946667,11703.998152
1376913405,345.267945484,11703.998152
1376913705,358.9226099946667,11703.998152
1376914005,366.72527542933335,11703.998152
1376914305,325.76128189733333,11703.998152
1376914605,327.711948256,11703.998152
1376914905,1215.2651414493332,11703.998152
1376915205,507.1732532533333,11703.998152
1376915505,323.8106155386667,11703.998152
1376915805,374.5279408640001,11703.998152
1376916105,356.971943636,11703.998152
1376916405,349.16927820133327,11703.998152
1376916705,370.6266081466667,11703.998152
1376917005,382.3306062986667,11703.998152
1376917305,388.18260537466665,11703.998152
1376917605,394.0346044506667,11703.998152
1376917905,386.231939016,11703.998152
1376918205,325.76128189733333,11703.998152
1376918505,511.0745859706668,11703.998152
1376918805,587.1505739586667,11703.998152
1376919105,374.5279408640001,11703.998152
1376919405,355.0212772773333,11703.998152
1376919705,337.46528004933333,11703.998152
1376920005,339.415946408,11703.998152
1376920306,329.66261461466667,11703.998152
1376920606,378.42927358133335,11703.998152
1376920906,421.343933472,11703.998152
1376921206,788.0692089013334,11703.998152
1376921506,333.563947332,11703.998152
1376921806,341.3666127666667,11703.998152
1376922106,321.85994918,11703.998152
1376922406,347.21861184266663,11703.998152
1376922706,474.011925156,11703.998152
1376923006,505.2225868946667,11703.998152
1376923306,355.0212772773333,11703.998152
1376923606,325.76128189733333,11703.998152
1376923906,333.563947332,11703.998152
1376924206,331.6132809733333,11703.998152
1376924506,548.1372467853333,11703.998152
1376924806,1880.4423697546663,11703.998152
1376925106,319.9092828213333,11703.998152
1376925406,333.563947332,11703.998152
1376925706,343.3172791253333,11703.998152
1376926306,717.8452199893334,11703.998152
1376926606,2338.8489640413336,11703.998152
1376926906,450.603928852,11703.998152
1376927206,1548.8290887813332,11703.998152
1376927506,421.343933472,11703.998152
1376927806,337.46528004933333,11703.998152
1376928106,553.9892458613333,11703.998152
1376928406,770.5132116733334,11703.998152
1376928706,442.8012634173333,11703.998152
1376929006,331.6132809733333,11703.998152
1376929306,351.11994456,11703.998152
1376929606,321.85994918,11703.998152
1376929906,548.1372467853333,11703.998152
1376930207,671.0292273813334,11703.998152
1376930507,321.85994918,11703.998152
1376930807,288.6986210826667,11703.998152
1376931107,356.971943636,11703.998152
1376931407,331.6132809733333,11703.998152
1376931707,559.8412449373333,11703.998152
1376932007,2600.2382561026666,11703.998152
1376932307,2102.818334642667,11703.998152
1376932607,1720.487728344,11703.998152
1376932907,672.97989374,11703.998152
1376933207,372.5772745053333,11703.998152
1376933507,752.9572144453334,11703.998152
1376933807,2842.120884577333,11703.998152
1376934107,2040.3970111653327,11703.998152
1376934407,2009.1863494266668,11703.998152
1376934707,1213.3144750906667,11703.998152
1376935007,1076.767829984,11703.998152
1376935307,1410.3317773160002,11703.998152
1376935607,3994.9647025493337,11703.998152
1376935907,2643.1529159933334,11703.998152
1376936207,1215.2651414493332,11703.998152
1376936507,1289.3904630786667,11703.998152
1376936807,2516.35960268,11703.998152
1376937107,3048.8915185960004,11703.998152
1376937407,4738.168585201333,11703.998152
1376937707,3950.0993763,11703.998152
1376938007,3417.567460384,11703.998152
1376938307,3392.2087977213337,11703.998152
1376938607,2793.354225610666,11703.998152
1376938907,2842.120884577333,11703.998152
1376939208,2877.2328790333336,11703.998152
1376939508,2849.923550012,11703.998152
1376939808,3076.2008476173337,11703.998152
1376940108,2980.6181960426666,11703.998152
1376940408,3201.0434945720003,11703.998152
1376940708,3284.9221479946664,11703.998152
1376941008,3259.5634853320003,11703.998152
1376941308,2767.995562948,11703.998152
1376941608,2787.502226534667,11703.998152
1376941908,2840.170218218667,11703.998152
1376942208,2777.748894741333,11703.998152
1376942508,2545.61959806,11703.998152
1376942808,3833.05939478,11703.998152
1376943108,2334.947631324,11703.998152
1376943408,2036.495678448,11703.998152
1376943708,2535.8662662666666,11703.998152
1376944008,1751.6983900826665,11703.998152
1376944308,1864.8370388853327,11703.998152
1376944608,2526.1129344733336,11703.998152
1376944908,2844.071550936,11703.998152
1376945208,2935.752869793334,11703.998152
1376945508,2512.4582699626662,11703.998152
1376945808,2251.0689779013333,11703.998152
1376946108,2309.5889686613336,11703.998152
1376946408,1445.443771772,11703.998152
1376946708,934.3691858013334,11703.998152
1376947008,1133.3371543853334,11703.998152
1376947309,1556.631754216,11703.998152
1376947609,1400.5784455226667,11703.998152
1376947909,1498.1117634560003,11703.998152
1376948209,1595.6450813893334,11703.998152
1376948509,1429.838440902667,11703.998152
1376948809,1207.462476014667,11703.998152
1376949109,1312.7984593826666,11703.998152
1376949408,1211.363808732,11703.998152
1376949709,1738.043725572,11703.998152
1376950009,2009.1863494266668,11703.998152
1376950309,1166.4984824826668,11703.998152
1376950609,1287.43979672,11703.998152
1376950909,1084.5704954186665,11703.998152
1376951209,1193.807811504,11703.998152
1376951509,1605.398413182667,11703.998152
1376951809,1484.4570989453332,11703.998152
1376952109,1431.7891072613334,11703.998152
1376952409,1470.802434434667,11703.998152
1376952709,1695.1290656813333,11703.998152
1376953009,1621.003744052,11703.998152
1376953309,1841.4290425813333,11703.998152
1376953610,3070.3488485413336,11703.998152
1376953910,2405.1716202360003,11703.998152
1376954210,2297.884970509333,11703.998152
1376954510,2155.4863263266666,11703.998152
1376954810,2018.93968122,11703.998152
1376955110,1634.6584085626666,11703.998152
1376955410,1710.7343965506668,11703.998152
1376955710,1562.483753292,11703.998152
1376956010,2091.1143364906666,11703.998152
1376956310,2586.583591592,11703.998152
1376956610,1853.1330407333328,11703.998152
1376956910,1779.0077191039998,11703.998152
1376957210,3905.2340500506666,11703.998152
1376957510,1256.2291349813331,11703.998152
1376957810,988.9878438439998,11703.998152
1376958110,907.05985678,11703.998152
1376958410,1024.0998383,11703.998152
1376958710,1107.9784917226666,11703.998152
1376959010,854.391865096,11703.998152
1376959310,827.0825360746667,11703.998152
1376959610,885.6025268346666,11703.998152
1376959910,1330.3544566106668,11703.998152
1376960210,1035.803836452,11703.998152
1376960510,1070.915830908,11703.998152
1376960810,1303.045127589333,11703.998152
1376961110,1418.1344427506667,11703.998152
1376961410,1174.3011479173333,11703.998152
1376961710,1022.1491719413336,11703.998152
1376962010,1365.4664510666669,11703.998152
1376962311,1642.4610739973332,11703.998152
1376962611,1899.9490333413328,11703.998152
1376962911,1739.9943919306668,11703.998152
1376963211,1554.6810878573335,11703.998152
1376963511,2102.818334642667,11703.998152
1376963811,1976.0250213293327,11703.998152
1376964111,2340.7996304,11703.998152
1376964411,2572.9289270813333,11703.998152
1376964711,2364.207626704,11703.998152
1376965011,2623.646252406666,11703.998152
1376965311,1925.307696004,11703.998152
1376965611,1974.0743549706667,11703.998152
1376965911,2024.791680296,11703.998152
1376966211,1849.231708016,11703.998152
1376966511,2446.1356137679995,11703.998152
1376966811,2434.4316156160003,11703.998152
1376967111,2633.3995842,11703.998152
1376967411,2888.9368771853333,11703.998152
1376967711,4275.860658197333,11703.998152
1376968011,4550.904614769333,11703.998152
1376968311,4603.572606453334,11703.998152
1376968611,4104.202018634666,11703.998152
1376968911,3723.8220786946654,11703.998152
1376969211,3493.643448372,11703.998152
1376969511,3124.967506584,11703.998152
1376969811,2549.520930777333,11703.998152
1376970111,2965.012865173333,11703.998152
1376970411,2990.3715278360005,11703.998152
1376970711,2401.2702875186665,11703.998152
1376971011,2596.3369233853336,11703.998152
1376971311,2900.640875337333,11703.998152
1376971611,3895.480718257333,11703.998152
1376971911,4164.672675753333,11703.998152
1376972211,3101.55951028,11703.998152
1376972512,2524.162268114667,11703.998152
1376972812,2795.3048919693338,11703.998152
1376973112,3191.290162778667,11703.998152
1376973412,3571.6701027186664,11703.998152
1376973712,3179.5861646266667,11703.998152
1376974012,3039.138186802667,11703.998152
1376974312,2625.596918765333,11703.998152
1376974612,2040.3970111653327,11703.998152
1376974912,2024.791680296,11703.998152
1376975212,1907.751698776,11703.998152
1376975512,1810.2183808426664,11703.998152
1376975812,1923.357029645333,11703.998152
1376976112,3349.294137830666,11703.998152
1376976412,3895.480718257333,11703.998152
1376976712,3641.8940916306665,11703.998152
1376977012,3567.768770001333,11703.998152
1376977312,3056.6941840306663,11703.998152
1376977612,3218.5994918,11703.998152
1376977912,4316.824651729334,11703.998152
1376978212,4240.748663741333,11703.998152
1376978512,4332.429982598666,11703.998152
1376978812,3263.464818049334,11703.998152
1376979112,3066.447515824,11703.998152
1376979412,3165.931500116,11703.998152
1376979712,3306.37947794,11703.998152
1376980012,3396.1101304386666,11703.998152
1376980312,3288.823480712,11703.998152
1376980612,3425.3701258186666,11703.998152
1376980912,3027.434188650667,11703.998152
1376981212,3070.3488485413336,11703.998152
1376981512,3140.5728374533337,11703.998152
1376981812,3072.2995149,11703.998152
1376982112,2744.587566644,11703.998152
1376982412,3284.9221479946664,11703.998152
1376982712,3390.2581313626665,11703.998152
1376983012,2582.682258874667,11703.998152
1376983312,1855.083707092,11703.998152
1376983612,1617.1024113346668,11703.998152
1376983912,1699.0303983986669,11703.998152
1376984212,1734.142392854667,11703.998152
1376984512,1700.9810647573331,11703.998152
1376984812,1330.3544566106668,11703.998152
1376985112,1234.7718050360002,11703.998152
1376985412,1260.1304676986667,11703.998152
1376985712,1790.711717256,11703.998152
1376986012,1574.1877514439998,11703.998152
1376986312,1529.3224251946667,11703.998152
1376986612,1892.146367906667,11703.998152
1376986912,1734.142392854667,11703.998152
1376987212,649.571897436,11703.998152
1376987512,399.8866035266667,11703.998152
1376987812,370.6266081466667,11703.998152
1376988112,362.823942712,11703.998152
1376988412,374.5279408640001,11703.998152
1376988712,378.42927358133335,11703.998152
1376989012,368.675941788,11703.998152
1376989312,395.9852708093333,11703.998152
1376989612,358.9226099946667,11703.998152
1376989912,358.9226099946667,11703.998152
1376990212,337.46528004933333,11703.998152
1376990512,815.3785379226666,11703.998152
1376990812,3031.335521368,11703.998152
1376991112,382.3306062986667,11703.998152
1376991412,333.563947332,11703.998152
1376991712,608.6079039040001,11703.998152
1376992012,912.911855856,11703.998152
1376992312,981.1851784093332,11703.998152
1376992612,805.6252061293334,11703.998152
1376992913,803.6745397706666,11703.998152
1376993213,739.3025499346666,11703.998152
1376993513,809.5265388466667,11703.998152
1376993813,846.5891996613334,11703.998152
1376994123,795.871874336,11703.998152
1376994423,887.5531931933334,11703.998152
1376994724,1059.211832756,11703.998152
1376995024,1084.5704954186665,11703.998152
1376995324,1100.175826288,11703.998152
1376995624,1422.035775468,11703.998152
1376995924,1367.4171174253331,11703.998152
1376996224,583.2492412413334,11703.998152
1376996524,557.8905785786667,11703.998152
1376996824,487.6665896666667,11703.998152
1376997124,378.42927358133335,11703.998152
1376997724,374.5279408640001,11703.998152
1376998024,401.8372698853333,11703.998152
1376998324,388.18260537466665,11703.998152
1376998624,341.3666127666667,11703.998152
1376998924,335.5146136906667,11703.998152
1376999224,386.231939016,11703.998152
1376999524,343.3172791253333,11703.998152
1376999824,355.0212772773333,11703.998152
1377000124,394.0346044506667,11703.998152
1377000424,366.72527542933335,11703.998152
1377000724,366.72527542933335,11703.998152
1377001024,409.63993532,11703.998152
1377001324,1394.726446446667,11703.998152
1377001624,540.3345813506667,11703.998152
1377001924,384.2812726573333,11703.998152
1377002224,409.63993532,11703.998152
1377002524,382.3306062986667,11703.998152
1377002824,341.3666127666667,11703.998152
1377003125,384.2812726573333,11703.998152
1377003425,372.5772745053333,11703.998152
1377003725,411.5906016786667,11703.998152
1377004025,384.2812726573333,11703.998152
1377004325,366.72527542933335,11703.998152
1377004625,382.3306062986667,11703.998152
1377004925,559.8412449373333,11703.998152
1377005225,643.71989836,11703.998152
1377005525,401.8372698853333,11703.998152
1377005825,382.3306062986667,11703.998152
1377006125,370.6266081466667,11703.998152
1377006425,364.7746090706667,11703.998152
1377006725,397.935937168,11703.998152
1377007025,368.675941788,11703.998152
1377007325,491.567922384,11703.998152
1377007625,733.4505508586667,11703.998152
1377007925,372.5772745053333,11703.998152
1377008225,368.675941788,11703.998152
1377008525,339.415946408,11703.998152
1377008825,366.72527542933335,11703.998152
1377009125,569.5945767306667,11703.998152
1377009425,394.0346044506667,11703.998152
1377009725,360.87327635333327,11703.998152
1377010025,356.971943636,11703.998152
1377010325,1326.4531238933332,11703.998152
1377010625,598.8545721106667,11703.998152
1377010925,1890.195701548,11703.998152
1377011226,2701.6729067533333,11703.998152
1377011526,2065.755673828,11703.998152
1377011826,1574.1877514439998,11703.998152
1377012126,1851.1823743746668,11703.998152
1377012426,343.3172791253333,11703.998152
1377012726,854.391865096,11703.998152
1377013026,1033.8531700933336,11703.998152
1377013326,380.37993994,11703.998152
1377013626,427.195932548,11703.998152
1377013926,372.5772745053333,11703.998152
1377014226,370.6266081466667,11703.998152
1377014526,708.0918881959999,11703.998152
1377014825,743.2038826520001,11703.998152
1377015125,434.9985979826667,11703.998152
1377015425,380.37993994,11703.998152
1377015725,358.9226099946667,11703.998152
1377016025,366.72527542933335,11703.998152
1377016325,587.1505739586667,11703.998152
1377016625,723.6972190653333,11703.998152
1377016925,341.3666127666667,11703.998152
1377017225,390.1332717333333,11703.998152
1377017526,358.9226099946667,11703.998152
1377017826,370.6266081466667,11703.998152
1377018126,881.7011941173333,11703.998152
1377018426,1439.591772696,11703.998152
1377018726,341.3666127666667,11703.998152
1377019026,368.675941788,11703.998152
1377019326,382.3306062986667,11703.998152
1377019626,353.0706109186667,11703.998152
1377019926,988.9878438439998,11703.998152
1377020226,3901.3327173333337,11703.998152
1377020526,1970.173022253333,11703.998152
1377020826,1583.9410832373333,11703.998152
1377021126,1453.2464372066668,11703.998152
1377021426,1304.995793948,11703.998152
1377021726,1796.563716332,11703.998152
1377022026,3259.5634853320003,11703.998152
1377022326,2321.2929668133334,11703.998152
1377022626,2360.306293986667,11703.998152
1377022926,1923.357029645333,11703.998152
1377023226,2978.6675296840003,11703.998152
1377023526,3795.9967339653335,11703.998152
1377023826,3879.875387388,11703.998152
1377024126,3682.8580851626666,11703.998152
1377024426,3653.598089782666,11703.998152
1377024726,3044.990185878667,11703.998152
1377025026,3234.2048226693337,11703.998152
1377025326,3519.002111034667,11703.998152
1377025627,4252.452661893333,11703.998152
1377025927,4244.6499964586665,11703.998152
1377026227,3602.8807644573335,11703.998152
1377026527,3770.638071302667,11703.998152
1377026827,3552.1634391320003,11703.998152
1377027127,3954.000709017333,11703.998152
1377027427,3821.355396628,11703.998152
1377027727,2416.875618388,11703.998152
1377028027,2432.4809492573336,11703.998152
1377028327,2469.5436100720003,11703.998152
1377028627,2401.2702875186665,11703.998152
1377028927,2805.0582237626663,11703.998152
1377029227,3790.144734889333,11703.998152
1377029527,2124.275664588,11703.998152
1377029827,1285.4891303613333,11703.998152
1377030127,1176.251814276,11703.998152
1377030427,1170.3998152,11703.998152
1377030727,2409.0729529533337,11703.998152
1377031027,1431.7891072613334,11703.998152
1377031327,1384.9731146533334,11703.998152
1377031627,1437.6411063373334,11703.998152
1377031927,1345.95978748,11703.998152
1377032227,1375.21978286,11703.998152
1377032527,1564.4344196506668,11703.998152
1377032827,1213.3144750906667,11703.998152
1377033127,885.6025268346666,11703.998152
1377033427,612.5092366213333,11703.998152
1377033727,756.8585471626667,11703.998152
1377034027,594.9532393933333,11703.998152
1377034327,1470.802434434667,11703.998152
1377034627,1092.3731608533335,11703.998152
1377034928,645.6705647186667,11703.998152
1377035228,916.8131885733336,11703.998152
1377035528,624.2132347733334,11703.998152
1377035828,587.1505739586667,11703.998152
1377036128,1829.725044429333,11703.998152
1377036428,1753.6490564413334,11703.998152
1377036728,963.6291811813334,11703.998152
1377037028,1258.17980134,11703.998152
1377037328,1187.9558124280002,11703.998152
1377037628,961.6785148226668,11703.998152
1377037928,1299.143794872,11703.998152
1377038229,1150.8931516133334,11703.998152
1377038529,1018.247839224,11703.998152
1377038829,1033.8531700933336,11703.998152
1377039129,1094.323827212,11703.998152
1377039429,2590.4849243093336,11703.998152
1377039729,2613.892920613334,11703.998152
1377040029,2578.7809261573334,11703.998152
1377040329,2214.006317086667,11703.998152
1377040629,2313.4903013786666,11703.998152
1377040929,1804.3663817666668,11703.998152
1377041229,2173.042323554667,11703.998152
1377041529,2617.7942533306664,11703.998152
1377041829,2270.575641488,11703.998152
1377042129,2056.002342034667,11703.998152
1377042429,1773.155720028,11703.998152
1377042729,1761.4517218760002,11703.998152
1377043029,1960.41969046,11703.998152
1377043329,2137.9303290986663,11703.998152
1377043629,4919.580556557334,11703.998152
1377043929,1665.8690703013333,11703.998152
1377044229,1603.447746824,11703.998152
1377044529,1745.8463910066669,11703.998152
1377044829,1642.4610739973332,11703.998152
1377045129,1699.0303983986669,11703.998152
1377045429,2481.247608224,11703.998152
1377045729,1923.357029645333,11703.998152
1377046029,1868.7383716026668,11703.998152
1377046329,1771.2050536693332,11703.998152
1377046629,2299.835636868,11703.998152
1377046929,2075.509005621333,11703.998152
1377047230,2077.45967198,11703.998152
1377047529,1950.6663586666668,11703.998152
1377047829,2056.002342034667,11703.998152
1377048129,1948.715692308,11703.998152
1377048429,1991.6303521986667,11703.998152
1377048729,2003.334350350667,11703.998152
1377049029,2315.4409677373333,11703.998152
1377049329,1441.5424390546668,11703.998152
1377049629,910.9611894973334,11703.998152
1377049929,1187.9558124280002,11703.998152
1377050229,1663.9184039426668,11703.998152
1377050529,1634.6584085626666,11703.998152
1377050829,1203.5611432973333,11703.998152
1377051129,1076.767829984,11703.998152
1377051429,1289.3904630786667,11703.998152
1377051729,1016.2971728653334,11703.998152
1377052029,1470.802434434667,11703.998152
1377052329,1570.2864187266669,11703.998152
1377052629,2537.8169326253333,11703.998152
1377052929,2256.9209769773333,11703.998152
1377053229,2366.158293062667,11703.998152
1377053529,2539.767598984,11703.998152
1377053830,3329.787474244,11703.998152
1377054130,3360.998135982666,11703.998152
1377054430,2929.900870717334,11703.998152
1377054730,2481.247608224,11703.998152
1377055030,3345.392805113334,11703.998152
1377055330,3146.424836529334,11703.998152
1377055630,3089.855512128,11703.998152
1377055930,1884.343702472,11703.998152
1377056230,1515.667760684,11703.998152
1377056530,1728.2903937786668,11703.998152
1377056830,2190.598320782666,11703.998152
1377057130,2331.046298606667,11703.998152
1377057430,2338.8489640413336,11703.998152
1377057730,2110.621000077333,11703.998152
1377058030,2089.1636701320003,11703.998152
1377058330,2227.6609815973334,11703.998152
1377058630,2459.790278278667,11703.998152
1377058930,3388.3074650040003,11703.998152
1377059230,2615.843586972,11703.998152
1377059530,2048.1996766,11703.998152
1377059830,2081.361004697333,11703.998152
1377060130,2206.203651652,11703.998152
1377060430,1628.806409486667,11703.998152
1377060730,2348.6022958346666,11703.998152
1377061030,3103.5101766386665,11703.998152
1377061330,3066.447515824,11703.998152
1377061631,2886.986210826666,11703.998152
1377061931,1962.3703568186663,11703.998152
1377062231,3257.612818973334,11703.998152
1377062531,2890.887543544,11703.998152
1377062831,2849.923550012,11703.998152
1377063131,2044.298343882667,11703.998152
1377063431,2520.260935397333,11703.998152
1377063731,2104.769001001333,11703.998152
1377064031,1942.8636932320003,11703.998152
1377064331,2730.9329021333338,11703.998152
1377064631,2678.264910449334,11703.998152
1377064931,2473.4449427893337,11703.998152
1377065231,1570.2864187266669,11703.998152
1377065531,1665.8690703013333,11703.998152
1377065831,1720.487728344,11703.998152
1377066131,1956.518357742667,11703.998152
1377066431,2582.682258874667,11703.998152
1377066731,3341.491472396,11703.998152
1377067031,2701.6729067533333,11703.998152
1377067331,4096.3993532,11703.998152
1377067631,4141.264679449333,11703.998152
1377067931,3019.631523216,11703.998152
1377068231,2354.4542949106667,11703.998152
1377068531,2604.13958882,11703.998152
1377068831,3084.003513052,11703.998152
1377069131,3294.675479788,11703.998152
1377069432,2826.5155537079995,11703.998152
1377069732,2219.858316162667,11703.998152
1377070032,1722.4383947026663,11703.998152
1377070332,2046.2490102413333,11703.998152
1377070632,1890.195701548,11703.998152
1377070932,2003.334350350667,11703.998152
1377071232,2851.8742163706665,11703.998152
1377071532,2939.6542025106664,11703.998152
1377071832,2799.2062246866662,11703.998152
1377072132,2949.407534304,11703.998152
1377072432,2826.5155537079995,11703.998152
1377072732,1537.1250906293333,11703.998152
1377073032,1384.9731146533334,11703.998152
1377073332,1373.2691165013332,11703.998152
1377073632,1201.6104769386668,11703.998152
1377073932,1045.5571682453333,11703.998152
1377074232,957.7771821053334,11703.998152
1377074532,981.1851784093332,11703.998152
1377074832,1340.1077884039998,11703.998152
1377075132,1295.2424621546668,11703.998152
1377075432,1804.3663817666668,11703.998152
1377075732,1283.5384640026668,11703.998152
1377076032,953.875849388,11703.998152
1377076332,1605.398413182667,11703.998152
1377076632,1808.267714484,11703.998152
1377076932,2075.509005621333,11703.998152
1377077232,3169.8328328333337,11703.998152
1377077532,893.4051922693334,11703.998152
1377077832,907.05985678,11703.998152
1377078132,1084.5704954186665,11703.998152
1377078432,1186.0051460693333,11703.998152
1377078732,998.7411756373334,11703.998152
1377079032,1010.4451737893334,11703.998152
1377079332,1024.0998383,11703.998152
1377079632,1143.0904861786669,11703.998152
1377079932,1010.4451737893334,11703.998152
1377080232,909.0105231386666,11703.998152
1377080532,889.5038595519999,11703.998152
1377080832,938.2705185186664,11703.998152
1377081132,1195.7584778626667,11703.998152
1377081432,2040.3970111653327,11703.998152
1377081732,1626.855743128,11703.998152
1377082032,1634.6584085626666,11703.998152
1377082332,1597.595747748,11703.998152
1377082632,1669.770403018667,11703.998152
1377082932,1490.3090980213333,11703.998152
1377083232,1484.4570989453332,11703.998152
1377083532,1275.735798568,11703.998152
1377083832,1264.031800416,11703.998152
1377084132,1156.7451506893333,11703.998152
1377084432,1092.3731608533335,11703.998152
1377084732,1024.0998383,11703.998152
1377085032,1207.462476014667,11703.998152
1377085332,1135.287820744,11703.998152
1377085632,1055.3105000386663,11703.998152
1377085932,992.8891765613334,11703.998152
1377086232,948.023850312,11703.998152
1377086532,967.5305138986664,11703.998152
1377086832,936.31985216,11703.998152
1377087132,998.7411756373334,11703.998152
1377087432,1076.767829984,11703.998152
1377087732,1187.9558124280002,11703.998152
1377088032,382.3306062986667,11703.998152
1377088332,427.195932548,11703.998152
1377088633,513.0252523293333,11703.998152
1377088933,450.603928852,11703.998152
1377089233,403.787936244,11703.998152
1377089533,530.5812495573333,11703.998152
1377089833,388.18260537466665,11703.998152
1377090133,407.6892689613333,11703.998152
1377090433,495.4692551013333,11703.998152
1377090733,376.4786072226667,11703.998152
1377091033,403.787936244,11703.998152
1377091333,649.571897436,11703.998152
1377091633,516.9265850466668,11703.998152
1377091933,401.8372698853333,11703.998152
1377092233,386.231939016,11703.998152
1377092533,394.0346044506667,11703.998152
1377092833,366.72527542933335,11703.998152
1377093133,462.307927004,11703.998152
1377093433,395.9852708093333,11703.998152
1377093733,552.0385795026667,11703.998152
1377094033,821.2305369986666,11703.998152
1377094333,392.083938092,11703.998152
1377094633,425.2452661893333,11703.998152
1377094933,382.3306062986667,11703.998152
1377095233,364.7746090706667,11703.998152
1377095533,594.9532393933333,11703.998152
1377095833,479.863924232,11703.998152
1377096133,395.9852708093333,11703.998152
1377096433,395.9852708093333,11703.998152
1377096733,358.9226099946667,11703.998152
1377097033,356.971943636,11703.998152
1377097333,754.907880804,11703.998152
1377097633,1886.2943688306664,11703.998152
1377097933,394.0346044506667,11703.998152
1377098234,388.18260537466665,11703.998152
1377098534,370.6266081466667,11703.998152
1377098834,380.37993994,11703.998152
1377099134,852.4411987373335,11703.998152
1377099434,2325.1942995306667,11703.998152
1377099734,2325.1942995306667,11703.998152
1377100034,1431.7891072613334,11703.998152
1377100334,1921.4063632866664,11703.998152
1377100634,1496.1610970973334,11703.998152
1377100934,879.7505277586667,11703.998152
1377101234,2342.7502967586665,11703.998152
1377101534,1223.0678068839998,11703.998152
1377101834,2342.7502967586665,11703.998152
1377102134,1689.2770666053332,11703.998152
1377102434,395.9852708093333,11703.998152
1377102734,641.7692320013334,11703.998152
1377103034,653.4732301533335,11703.998152
1377103334,468.15992608,11703.998152
1377103634,333.563947332,11703.998152
1377103934,364.7746090706667,11703.998152
1377104234,358.9226099946667,11703.998152
1377104534,946.0731839533332,11703.998152
1377104834,1541.026423346667,11703.998152
1377105134,388.18260537466665,11703.998152
1377105434,382.3306062986667,11703.998152
1377105735,382.3306062986667,11703.998152
1377106035,360.87327635333327,11703.998152
1377106335,1033.8531700933336,11703.998152
1377106635,4215.3900010786665,11703.998152
1377106935,1726.33972742,11703.998152
1377107235,1437.6411063373334,11703.998152
1377107535,1396.677112805333,11703.998152
1377107835,1363.5157847080002,11703.998152
1377108135,1853.1330407333328,11703.998152
1377108435,3821.355396628,11703.998152
1377108735,3021.5821895746667,11703.998152
1377109035,1459.0984362826669,11703.998152
1377109335,1505.9144288906668,11703.998152
1377109635,2629.498251482666,11703.998152
1377109935,3548.2621064146665,11703.998152
1377110235,4193.932671133334,11703.998152
1377110535,4113.955350428,11703.998152
1377110835,3817.454063910666,11703.998152
1377111135,3204.9448272893337,11703.998152
1377111435,3339.540806037334,11703.998152
1377111736,3378.5541332106664,11703.998152
1377112036,3858.4180574426673,11703.998152
1377112336,2641.202249634667,11703.998152
1377112636,2910.3942071306665,11703.998152
1377112935,2906.492874413333,11703.998152
1377113235,2818.7128882733336,11703.998152
1377113535,2650.955581428,11703.998152
1377113835,3105.460842997333,11703.998152
1377114135,2030.643679372,11703.998152
1377114435,1784.8597181799998,11703.998152
1377114735,1771.2050536693332,11703.998152
1377115035,2256.9209769773333,11703.998152
1377115335,2475.395609148,11703.998152
1377115635,2619.744919689334,11703.998152
1377115935,1482.5064325866667,11703.998152
1377116235,1232.8211386773337,11703.998152
1377116535,1804.3663817666668,11703.998152
1377116835,1507.8650952493333,11703.998152
1377117135,1921.4063632866664,11703.998152
1377117435,3002.075525988,11703.998152
1377117735,2805.0582237626663,11703.998152
1377118036,2664.6102459386666,11703.998152
1377118336,2629.498251482666,11703.998152
1377118636,2130.127663664,11703.998152
1377118936,2057.953008393333,11703.998152
1377119236,1806.317048125333,11703.998152
1377119536,1597.595747748,11703.998152
1377119836,1420.0851091093334,11703.998152
1377120136,1269.883799492,11703.998152
1377120436,1127.485155309333,11703.998152
1377120736,1607.3490795413331,11703.998152
1377121036,1940.913026873333,11703.998152
1377121336,1289.3904630786667,11703.998152
1377121636,1269.883799492,11703.998152
1377121936,1340.1077884039998,11703.998152
1377122236,1779.0077191039998,11703.998152
1377122537,1779.0077191039998,11703.998152
1377122837,1096.274493570667,11703.998152
1377123137,1265.9824667746668,11703.998152
1377123437,1088.88982807,11703.998152
1377123737,1679.523734812,11703.998152
1377124037,1677.573068453333,11703.998152
1377124337,1458.8197696599998,11703.998152
1377124637,1843.37970894,11703.998152
1377124937,2535.16959971,11703.998152
1377125237,2666.5609122973337,11703.998152
1377125537,3185.4381637026668,11703.998152
1377125837,3398.0607967973338,11703.998152
1377126137,4277.811324556,11703.998152
1377126437,3946.198043582667,11703.998152
1377126737,3538.508774621333,11703.998152
1377127037,3281.2994819,11703.998152
1377127337,2537.8169326253333,11703.998152
1377127637,1860.9357061680005,11703.998152
1377127937,1531.2730915533332,11703.998152
1377128237,1775.1063863866668,11703.998152
1377128537,2580.731592516,11703.998152
1377128837,2227.6609815973334,11703.998152
1377129137,2192.5489871413333,11703.998152
1377129437,2290.0823050746667,11703.998152
1377129737,2370.0596257800003,11703.998152
1377130037,3517.0514446760003,11703.998152
1377130337,2108.6703337186664,11703.998152
1377130637,2210.104984369333,11703.998152
1377130937,2319.3423004546667,11703.998152
1377131237,2422.727617464,11703.998152
1377131537,2537.8169326253333,11703.998152
1377131837,2555.372929853333,11703.998152
1377132138,3897.431384616,11703.998152
1377132438,3277.11948256,11703.998152
1377132738,3503.396780165333,11703.998152
1377133038,3766.736738585334,11703.998152
1377133338,2814.8115555560003,11703.998152
1377133638,2366.158293062667,11703.998152
1377133938,2352.503628552,11703.998152
1377134238,1365.4664510666669,11703.998152
1377134538,1390.8251137293337,11703.998152
1377134838,1273.7851322093331,11703.998152
1377135138,1381.071781936,11703.998152
1377135438,1431.7891072613334,11703.998152
1377135738,1823.8730453533333,11703.998152
1377136038,1542.9770897053331,11703.998152
1377136338,1537.1250906293333,11703.998152
1377136638,1899.9490333413328,11703.998152
1377136938,2251.0689779013333,11703.998152
1377137238,2192.5489871413333,11703.998152
1377137538,2157.4369926853333,11703.998152
1377137838,2284.2303059986666,11703.998152
1377138138,2247.167645184,11703.998152
1377138438,2186.696988065333,11703.998152
1377138738,1995.531684916,11703.998152
1377139038,1322.551791176,11703.998152
1377139338,2842.120884577333,11703.998152
1377139638,3359.047469624,11703.998152
1377139938,3661.400755217334,11703.998152
1377140238,3089.855512128,11703.998152
1377140538,2721.1795703400003,11703.998152
1377140838,2190.598320782666,11703.998152
1377141138,2100.867668284,11703.998152
1377141438,2373.960958497333,11703.998152
1377141738,2379.8129575733333,11703.998152
1377142038,1905.801032417333,11703.998152
1377142338,2783.600893817333,11703.998152
1377142638,2994.272860553334,11703.998152
1377142938,2910.3942071306665,11703.998152
1377143238,2873.331546316,11703.998152
1377143538,3087.904845769334,11703.998152
1377143838,3169.8328328333337,11703.998152
1377144138,3265.415484408,11703.998152
1377144438,3439.024790329333,11703.998152
1377144738,3655.548756141334,11703.998152
1377145039,3520.952777393333,11703.998152
1377145339,3199.0928282133336,11703.998152
1377145638,3565.8181036426663,11703.998152
1377145938,2635.350250558666,11703.998152
1377146238,2641.202249634667,11703.998152
1377146538,3004.0261923466664,11703.998152
1377146838,3772.588737661333,11703.998152
1377147138,4067.13935782,11703.998152
1377147438,3996.915368908,11703.998152
1377147738,3343.4421387546668,11703.998152
1377148038,1818.0210462773327,11703.998152
1377148338,1402.5291118813332,11703.998152
1377148638,1412.2824436746669,11703.998152
1377148938,2204.252985293333,11703.998152
1377149238,2139.880995457333,11703.998152
1377149538,2104.769001001333,11703.998152
1377149839,1800.4650490493334,11703.998152
1377150139,2600.2382561026666,11703.998152
1377150439,2781.650227458667,11703.998152
1377150739,2576.8302597986667,11703.998152
1377151039,2643.1529159933334,11703.998152
1377151339,979.2345120506668,11703.998152
1377151639,912.911855856,11703.998152
1377151939,1002.6425083546668,11703.998152
1377152239,1338.1571220453332,11703.998152
1377152539,875.8491950413332,11703.998152
1377152839,885.6025268346666,11703.998152
1377153139,1039.7051691693332,11703.998152
1377153439,1890.195701548,11703.998152
1377153739,1979.9263540466668,11703.998152
1377154039,1695.1290656813333,11703.998152
1377154339,1603.447746824,11703.998152
1377154639,1228.91980596,11703.998152
1377154939,1468.851768076,11703.998152
1377155239,1777.057052745333,11703.998152
1377155539,1794.613049973333,11703.998152
1377155839,1765.3530545933331,11703.998152
1377156139,417.4426007546667,11703.998152
1377156439,384.2812726573333,11703.998152
1377156739,399.8866035266667,11703.998152
1377157039,403.787936244,11703.998152
1377157339,413.5412680373333,11703.998152
1377157639,421.343933472,11703.998152
1377157939,401.8372698853333,11703.998152
1377158239,388.18260537466665,11703.998152
1377158539,844.6385333026666,11703.998152
1377158840,550.087913144,11703.998152
1377159140,460.3572606453333,11703.998152
1377159440,380.37993994,11703.998152
1377159740,372.5772745053333,11703.998152
1377160040,372.5772745053333,11703.998152
1377160340,415.491934396,11703.998152
1377160640,413.5412680373333,11703.998152
1377160940,395.9852708093333,11703.998152
1377161240,403.787936244,11703.998152
1377161540,413.5412680373333,11703.998152
1377161840,392.083938092,11703.998152
1377162140,397.935937168,11703.998152
1377162439,409.63993532,11703.998152
1377162739,401.8372698853333,11703.998152
1377163039,405.7386026026667,11703.998152
1377163339,1225.0184732426667,11703.998152
1377163639,2771.896895665333,11703.998152
1377163939,395.9852708093333,11703.998152
1377164239,411.5906016786667,11703.998152
1377164540,616.4105693386667,11703.998152
1377164840,628.1145674906666,11703.998152
1377165140,522.7785841226666,11703.998152
1377165440,417.4426007546667,11703.998152
1377165740,407.6892689613333,11703.998152
1377166040,386.231939016,11703.998152
1377166340,407.6892689613333,11703.998152
1377166640,392.083938092,11703.998152
1377166940,419.39326711333325,11703.998152
1377167240,425.2452661893333,11703.998152
1377167540,388.18260537466665,11703.998152
1377167840,421.343933472,11703.998152
1377168140,495.4692551013333,11703.998152
1377168440,905.1091904213332,11703.998152
1377168740,842.687866944,11703.998152
1377169040,815.3785379226666,11703.998152
1377169340,1041.655835528,11703.998152
1377169640,1004.5931747133334,11703.998152
1377169940,901.207857704,11703.998152
1377170240,909.0105231386666,11703.998152
1377170540,928.5171867253332,11703.998152
1377170840,1006.543841072,11703.998152
1377171140,1154.7944843306668,11703.998152
1377171440,1141.13981982,11703.998152
1377171740,1135.287820744,11703.998152
1377172041,1166.4984824826668,11703.998152
1377172341,1215.2651414493332,11703.998152
1377172641,832.9345351506666,11703.998152
1377172941,397.935937168,11703.998152
1377173241,397.935937168,11703.998152
1377173541,386.231939016,11703.998152
1377173841,542.2852477093332,11703.998152
1377174141,1347.9104538386666,11703.998152
1377174441,431.09726526533336,11703.998152
1377174741,380.37993994,11703.998152
1377175041,415.491934396,11703.998152
1377175341,374.5279408640001,11703.998152
1377175641,413.5412680373333,11703.998152
1377175941,434.9985979826667,11703.998152
1377176241,409.63993532,11703.998152
1377176541,399.8866035266667,11703.998152
1377176841,380.37993994,11703.998152
1377177141,472.0612587973334,11703.998152
1377177441,380.37993994,11703.998152
1377177741,669.0785610226666,11703.998152
1377178041,591.051906676,11703.998152
1377178341,415.491934396,11703.998152
1377178641,429.14659890666667,11703.998152
1377178941,427.195932548,11703.998152
1377179241,427.195932548,11703.998152
1377179541,388.18260537466665,11703.998152
1377179841,403.787936244,11703.998152
1377180141,565.6932440133334,11703.998152
1377180441,1927.2583623626667,11703.998152
1377180741,1981.8770204053333,11703.998152
1377181041,2067.706340186667,11703.998152
1377181341,932.4185194426666,11703.998152
1377181641,448.6532624933333,11703.998152
1377181941,594.9532393933333,11703.998152
1377182241,409.63993532,11703.998152
1377182542,425.2452661893333,11703.998152
1377182842,452.55459521066666,11703.998152
1377183142,360.87327635333327,11703.998152
1377183442,1558.582420574667,11703.998152
1377183742,1217.215807808,11703.998152
1377184042,2654.8569141453336,11703.998152
1377184342,470.1105924386666,11703.998152
1377184642,351.11994456,11703.998152
1377184942,370.6266081466667,11703.998152
1377185242,384.2812726573333,11703.998152
1377185542,936.31985216,11703.998152
1377185842,918.763854932,11703.998152
1377186142,376.4786072226667,11703.998152
1377186442,409.63993532,11703.998152
1377186742,419.39326711333325,11703.998152
1377187042,411.5906016786667,11703.998152
1377187342,780.2665434666666,11703.998152
1377187642,688.5852246093334,11703.998152
1377187942,399.8866035266667,11703.998152
1377188242,423.2945998306667,11703.998152
1377188542,405.7386026026667,11703.998152
1377188842,392.083938092,11703.998152
1377189142,780.2665434666666,11703.998152
1377189442,462.307927004,11703.998152
1377189742,388.18260537466665,11703.998152
1377190042,405.7386026026667,11703.998152
1377190342,538.383914992,11703.998152
1377190643,380.37993994,11703.998152
1377190943,1028.0011710173335,11703.998152
1377191243,2155.4863263266666,11703.998152
1377191543,1974.0743549706667,11703.998152
1377191843,1979.9263540466668,11703.998152
1377192143,1874.5903706786664,11703.998152
1377192443,1777.057052745333,11703.998152
1377192743,2204.252985293333,11703.998152
1377193043,3875.974054670666,11703.998152
1377193343,4408.505970586666,11703.998152
1377193643,2896.73954262,11703.998152
1377193943,2227.6609815973334,11703.998152
1377194243,2293.983637792,11703.998152
1377194543,2303.7369695853336,11703.998152
1377194843,2190.598320782666,11703.998152
1377195143,1564.4344196506668,11703.998152
1377195443,1490.3090980213333,11703.998152
1377195743,2167.1903244786668,11703.998152
1377196043,2859.6768818053333,11703.998152
1377196343,5844.196410565333,11703.998152
1377196643,6195.316355125333,11703.998152
1377196943,6585.449626858667,11703.998152
1377197243,4646.487266344,11703.998152
1377197543,3825.256729345334,11703.998152
1377197843,4072.991356896,11703.998152
1377198143,4595.769941018667,11703.998152
1377198443,3292.7248134293336,11703.998152
1377198743,2118.4236655120003,11703.998152
1377199043,3144.474170170666,11703.998152
1377199343,3392.2087977213337,11703.998152
1377199643,3433.1727912533333,11703.998152
1377199943,3729.6740777706655,11703.998152
1377200243,3756.983406792,11703.998152
1377200543,2635.350250558666,11703.998152
1377200843,1847.2810416573327,11703.998152
1377201143,1878.491703396,11703.998152
1377201443,1798.514382690667,11703.998152
1377201743,2539.767598984,11703.998152
1377202043,3364.8994687,11703.998152
1377202343,1726.33972742,11703.998152
1377202643,2254.970310618666,11703.998152
1377202943,2256.9209769773333,11703.998152
1377203243,1749.7477237239998,11703.998152
1377203543,1777.057052745333,11703.998152
1377203844,1369.3677837839998,11703.998152
1377204144,2149.6343272506665,11703.998152
1377204444,2159.387659044,11703.998152
1377204744,2003.334350350667,11703.998152
1377205044,1870.6890379613333,11703.998152
1377205344,2145.732994533333,11703.998152
1377205644,1500.062429814667,11703.998152
1377205944,985.0865111266666,11703.998152
1377206244,1117.731823516,11703.998152
1377206544,1297.1931285133332,11703.998152
1377206844,1342.0584547626668,11703.998152
1377207144,2576.8302597986667,11703.998152
1377207444,2379.8129575733333,11703.998152
1377207744,2227.6609815973334,11703.998152
1377208044,2241.315646108,11703.998152
1377208344,1950.6663586666668,11703.998152
1377208644,1962.3703568186663,11703.998152
1377208944,3396.1101304386666,11703.998152
1377209245,2237.414313390667,11703.998152
1377209545,2389.5662893666668,11703.998152
1377209845,1897.9983669826668,11703.998152
1377210145,2015.0383485026668,11703.998152
1377210445,1878.491703396,11703.998152
1377210745,2116.472999153333,11703.998152
1377211045,2013.087682144,11703.998152
1377211345,1622.9544104106667,11703.998152
1377211645,1968.2223558946664,11703.998152
1377211945,2290.0823050746667,11703.998152
1377212245,2149.6343272506665,11703.998152
1377212545,2350.552962193333,11703.998152
1377212845,1716.586395626667,11703.998152
1377213145,1576.1384178026667,11703.998152
1377213445,1798.514382690667,11703.998152
1377213745,2379.8129575733333,11703.998152
1377214045,3015.7301904986666,11703.998152
1377214345,2539.767598984,11703.998152
1377214645,2147.6836608920003,11703.998152
1377214945,2424.6782838226663,11703.998152
1377215245,1999.4330176333333,11703.998152
1377215545,3087.904845769334,11703.998152
1377215845,3400.0114631560004,11703.998152
1377216145,3957.902041734666,11703.998152
1377216445,5680.340436437334,11703.998152
1377216745,2631.448917841333,11703.998152
1377217045,1617.1024113346668,11703.998152
1377217345,1601.497080465333,11703.998152
1377217645,1578.0890841613332,11703.998152
1377217945,2003.334350350667,11703.998152
1377218245,1835.5770435053328,11703.998152
1377218545,2186.696988065333,11703.998152
1377218845,2161.3383254026667,11703.998152
1377219145,3037.187520444,11703.998152
1377219445,2814.8115555560003,11703.998152
1377219745,1546.8784224226663,11703.998152
1377220045,1328.403790252,11703.998152
1377220345,1989.6796858400005,11703.998152
1377220646,1796.563716332,11703.998152
1377220946,1925.307696004,11703.998152
1377221246,1886.2943688306664,11703.998152
1377221546,2362.256960345333,11703.998152
1377221846,2044.298343882667,11703.998152
1377222146,1882.393036113333,11703.998152
1377222446,2198.400986217333,11703.998152
1377222746,1792.6623836146669,11703.998152
1377223046,1812.169047201333,11703.998152
1377223346,2438.3329483333337,11703.998152
1377223646,1995.531684916,11703.998152
1377223946,1699.0303983986669,11703.998152
1377224246,1355.7131192733332,11703.998152
1377224546,1135.287820744,11703.998152
1377224846,1433.73977362,11703.998152
1377225146,2438.3329483333337,11703.998152
1377225446,3128.868839301333,11703.998152
1377225746,2643.1529159933334,11703.998152
1377226046,2161.3383254026667,11703.998152
1377226346,2274.4769742053336,11703.998152
1377226646,3359.047469624,11703.998152
1377226946,3497.544781089334,11703.998152
1377227246,3879.875387388,11703.998152
1377227546,4032.027363364,11703.998152
1377227846,3663.351421576,11703.998152
1377228146,3290.774147070666,11703.998152
1377228446,3634.091426196,11703.998152
1377228746,3963.7540408106665,11703.998152
1377229046,4071.040690537333,11703.998152
1377229346,3743.3287422813337,11703.998152
1377229646,3093.756844845333,11703.998152
1377229946,2128.1769973053333,11703.998152
1377230246,1896.047700624,11703.998152
1377230546,2370.0596257800003,11703.998152
1377230846,2407.1222865946665,11703.998152
1377231146,2455.888945561333,11703.998152
1377231446,2253.01964426,11703.998152
1377231746,2356.4049612693334,11703.998152
1377232046,1747.797057365333,11703.998152
1377232346,1853.1330407333328,11703.998152
1377232646,1800.4650490493334,11703.998152
1377232946,1320.6011248173336,11703.998152
1377233247,1187.9558124280002,11703.998152
1377233547,1209.4131423733334,11703.998152
1377233847,1552.7304214986666,11703.998152
1377234147,2855.775549088,11703.998152
1377234447,2707.5249058293334,11703.998152
1377234747,2662.6595795800004,11703.998152
1377235047,3694.5620833146654,11703.998152
1377235347,3747.2300749986666,11703.998152
1377235647,3552.1634391320003,11703.998152
1377235947,3411.715461308,11703.998152
1377236247,4156.870010318667,11703.998152
1377236547,4392.900639717333,11703.998152
1377236847,3284.9221479946664,11703.998152
1377237147,4227.093999230667,11703.998152
1377237447,4761.576581505334,11703.998152
1377237747,4490.433957650666,11703.998152
1377238047,5428.704476169334,11703.998152
1377238347,4765.477914222667,11703.998152
1377238647,4490.433957650666,11703.998152
1377238947,2707.5249058293334,11703.998152
1377239247,1654.1650721493334,11703.998152
1377239547,1714.635729268,11703.998152
1377239847,1685.375733888,11703.998152
1377240147,1363.5157847080002,11703.998152
1377240447,1435.6904399786667,11703.998152
1377240747,1679.523734812,11703.998152
1377241047,1480.555766228,11703.998152
1377241347,1665.8690703013333,11703.998152
1377241647,2582.682258874667,11703.998152
1377241947,2920.147538924,11703.998152
1377242247,2978.6675296840003,11703.998152
1377242547,2684.116909525333,11703.998152
1377242848,1248.4264695466668,11703.998152
1377243148,883.651860476,11703.998152
1377243448,1199.65981058,11703.998152
1377243748,1931.15969508,11703.998152
1377244048,1958.4690241013327,11703.998152
1377244347,1691.227732964,11703.998152
1377244647,1732.1917264960002,11703.998152
1377244947,1977.975687688,11703.998152
1377245247,2048.1996766,11703.998152
1377245547,1275.735798568,11703.998152
1377245847,1728.2903937786668,11703.998152
1377246147,1782.9090518213332,11703.998152
1377246447,632.0159002080001,11703.998152
1377246748,421.343933472,11703.998152
1377247048,425.2452661893333,11703.998152
1377247348,438.8999307,11703.998152
1377247648,399.8866035266667,11703.998152
1377247948,399.8866035266667,11703.998152
1377248248,394.0346044506667,11703.998152
1377248548,470.1105924386666,11703.998152
1377248848,639.8185656426666,11703.998152
1377249148,550.087913144,11703.998152
1377249448,343.3172791253333,11703.998152
1377249748,1232.8211386773337,11703.998152
1377250048,3745.27940864,11703.998152
1377250348,1909.7023651346667,11703.998152
1377250648,2163.288991761334,11703.998152
1377250948,2024.791680296,11703.998152
1377251248,1753.6490564413334,11703.998152
1377251548,817.3292042813333,11703.998152
1377251848,832.9345351506666,11703.998152
1377252148,791.9705416186666,11703.998152
1377252448,752.9572144453334,11703.998152
1377252748,788.0692089013334,11703.998152
1377253048,809.5265388466667,11703.998152
1377253348,788.0692089013334,11703.998152
1377253648,795.871874336,11703.998152
1377253948,838.7865342266665,11703.998152
1377254248,1102.1264926466663,11703.998152
1377254548,1107.9784917226666,11703.998152
1377254848,1035.803836452,11703.998152
1377255148,1104.0771590053334,11703.998152
1377255448,1170.3998152,11703.998152
1377255748,1303.045127589333,11703.998152
1377256048,1143.0904861786669,11703.998152
1377256348,963.6291811813334,11703.998152
1377256648,938.2705185186664,11703.998152
1377256948,909.0105231386666,11703.998152
1377257249,961.6785148226668,11703.998152
1377257549,907.05985678,11703.998152
1377257849,1024.0998383,11703.998152
1377258149,456.455927928,11703.998152
1377258449,382.3306062986667,11703.998152
1377258749,353.0706109186667,11703.998152
1377259049,360.87327635333327,11703.998152
1377259349,370.6266081466667,11703.998152
1377259649,372.5772745053333,11703.998152
1377259949,384.2812726573333,11703.998152
1377260249,421.343933472,11703.998152
1377260549,1558.582420574667,11703.998152
1377260849,392.083938092,11703.998152
1377261149,333.563947332,11703.998152
1377261449,374.5279408640001,11703.998152
1377261749,380.37993994,11703.998152
1377262049,356.971943636,11703.998152
1377262349,341.3666127666667,11703.998152
1377262649,405.7386026026667,11703.998152
1377262949,372.5772745053333,11703.998152
1377263249,360.87327635333327,11703.998152
1377263549,345.267945484,11703.998152
1377263849,335.5146136906667,11703.998152
1377264149,520.8279177640001,11703.998152
1377264449,553.9892458613333,11703.998152
1377264749,362.823942712,11703.998152
1377265049,349.16927820133327,11703.998152
1377265349,355.0212772773333,11703.998152
1377265649,329.66261461466667,11703.998152
1377265949,374.5279408640001,11703.998152
1377266249,333.563947332,11703.998152
1377266549,464.25859336266666,11703.998152
1377266849,696.3878900440001,11703.998152
1377267149,333.563947332,11703.998152
1377267449,337.46528004933333,11703.998152
1377267749,335.5146136906667,11703.998152
1377268049,347.21861184266663,11703.998152
1377268349,553.9892458613333,11703.998152
1377268649,370.6266081466667,11703.998152
1377268949,339.415946408,11703.998152
1377269249,349.16927820133327,11703.998152
1377269549,351.11994456,11703.998152
1377269849,1400.5784455226667,11703.998152
1377270149,729.5492181413334,11703.998152
1377270449,3470.235452068,11703.998152
1377270749,2270.575641488,11703.998152
1377271049,2307.638302302667,11703.998152
1377271349,1976.0250213293327,11703.998152
1377271649,2106.71966736,11703.998152
1377271950,2530.0142671906665,11703.998152
1377272250,1656.1157385079998,11703.998152
1377272550,351.11994456,11703.998152
1377272850,335.5146136906667,11703.998152
1377273150,372.5772745053333,11703.998152
1377273450,353.0706109186667,11703.998152
1377273750,604.7065711866667,11703.998152
1377274050,979.2345120506668,11703.998152
1377274350,356.971943636,11703.998152
1377274650,331.6132809733333,11703.998152
1377274950,353.0706109186667,11703.998152
1377275250,319.9092828213333,11703.998152
1377275550,643.71989836,11703.998152
1377275850,563.7425776546667,11703.998152
1377276150,349.16927820133327,11703.998152
1377276450,339.415946408,11703.998152
1377276750,356.971943636,11703.998152
1377277050,405.7386026026667,11703.998152
1377277350,827.0825360746667,11703.998152
1377277650,1306.946460306667,11703.998152
1377277950,378.42927358133335,11703.998152
1377278250,356.971943636,11703.998152
1377278550,362.823942712,11703.998152
1377278850,286.747954724,11703.998152
1377279150,1131.3864880266667,11703.998152
1377279450,3378.5541332106664,11703.998152
1377279750,946.0731839533332,11703.998152
1377280050,830.983868792,11703.998152
1377280350,811.4772052053333,11703.998152
1377280650,758.8092135213333,11703.998152
1377280950,1379.1211155773333,11703.998152
1377281250,3423.41945946,11703.998152
1377281551,3004.0261923466664,11703.998152
1377281851,2559.2742625706665,11703.998152
1377282151,1833.626377146667,11703.998152
1377282451,1786.8103845386668,11703.998152
1377282751,4833.751236776,11703.998152
1377283051,4010.5700334186654,11703.998152
1377283351,4217.340667437333,11703.998152
1377283651,3862.31939016,11703.998152
1377283951,3497.544781089334,11703.998152
1377284251,3435.123457612,11703.998152
1377284551,2656.8075805040003,11703.998152
1377284851,2309.5889686613336,11703.998152
1377285151,4248.551329176,11703.998152
1377285451,2695.8209076773333,11703.998152
1377285751,2647.0542487106663,11703.998152
1377286051,2670.4622450146667,11703.998152
1377286351,3226.4021572346664,11703.998152
1377286651,2633.3995842,11703.998152
1377286951,1732.1917264960002,11703.998152
1377287251,1576.1384178026667,11703.998152
1377287551,1515.667760684,11703.998152
1377287851,1570.2864187266669,11703.998152
1377288151,2465.642277354667,11703.998152
1377288451,3481.93945022,11703.998152
1377288751,1948.715692308,11703.998152
1377289051,1642.4610739973332,11703.998152
1377289351,1529.3224251946667,11703.998152
1377289651,1753.6490564413334,11703.998152
1377289951,1435.6904399786667,11703.998152
1377290251,881.7011941173333,11703.998152
1377290551,1640.5104076386667,11703.998152
1377290852,1650.263739432,11703.998152
1377291152,1404.47977824,11703.998152
1377291452,1453.2464372066668,11703.998152
1377291752,1689.2770666053332,11703.998152
1377292052,1478.6050998693331,11703.998152
1377292352,1028.0011710173335,11703.998152
1377292652,1059.211832756,11703.998152
1377292952,1344.0091211213332,11703.998152
1377293252,830.983868792,11703.998152
1377293551,1761.4517218760002,11703.998152
1377293851,758.8092135213333,11703.998152
1377294151,918.763854932,11703.998152
1377294451,832.9345351506666,11703.998152
1377294751,686.6345582506666,11703.998152
1377295051,752.9572144453334,11703.998152
1377295352,1373.2691165013332,11703.998152
1377295652,1617.1024113346668,11703.998152
1377295952,2483.1982745826667,11703.998152
1377296252,1636.609074921333,11703.998152
1377296552,2024.791680296,11703.998152
1377296852,1995.531684916,11703.998152
1377297152,2217.907649804,11703.998152
1377297452,1550.77975514,11703.998152
1377297752,1340.1077884039998,11703.998152
1377298052,1303.045127589333,11703.998152
1377298352,2200.351652576,11703.998152
1377298652,1966.271689536,11703.998152
1377298952,2262.7729760533334,11703.998152
1377299252,1851.1823743746668,11703.998152
1377299552,2130.127663664,11703.998152
1377299852,2085.2623374146665,11703.998152
1377300152,2280.3289732813337,11703.998152
1377300452,3577.522101794667,11703.998152
1377300752,2939.6542025106664,11703.998152
1377301052,3076.2008476173337,11703.998152
1377301352,2691.91957496,11703.998152
1377301652,3091.8061784866663,11703.998152
1377301952,2994.272860553334,11703.998152
1377302252,2963.0621988146663,11703.998152
1377302552,3308.3301442986667,11703.998152
1377302852,5089.288529761333,11703.998152
1377303152,3388.3074650040003,11703.998152
1377303452,3479.9887838613336,11703.998152
1377303752,4020.323365212,11703.998152
1377304052,3782.342069454666,11703.998152
1377304352,3745.27940864,11703.998152
1377304652,4484.581958574666,11703.998152
1377304953,3542.4101073386664,11703.998152
1377305253,3044.990185878667,11703.998152
1377305553,3263.464818049334,11703.998152
1377305853,2721.1795703400003,11703.998152
1377306153,2377.8622912146666,11703.998152
1377306453,2986.4701951186667,11703.998152
1377306753,3505.347446524,11703.998152
1377307053,3782.342069454666,11703.998152
1377307353,3780.391403096,11703.998152
1377307653,4112.004684069334,11703.998152
1377307953,3710.167414184,11703.998152
1377308253,4045.6820278746654,11703.998152
1377308553,4203.686002926666,11703.998152
1377308853,2883.0848781093337,11703.998152
1377309153,1702.9317311160005,11703.998152
1377309453,2758.2422311546666,11703.998152
1377309753,3712.1180805426666,11703.998152
1377310053,4158.820676677333,11703.998152
1377310353,2305.687635944,11703.998152
1377310653,1790.711717256,11703.998152
1377310953,2206.203651652,11703.998152
1377311253,4043.731361516,11703.998152
1377311553,3762.835405868,11703.998152
1377311853,3561.9167709253334,11703.998152
1377312153,3398.0607967973338,11703.998152
1377312453,3458.5314539160004,11703.998152
1377312753,3669.203420652,11703.998152
1377313053,2586.583591592,11703.998152
1377313353,2730.9329021333338,11703.998152
1377313653,2826.5155537079995,11703.998152
1377313953,2703.623573112,11703.998152
1377314253,2609.991587896,11703.998152
1377314553,3021.5821895746667,11703.998152
1377314853,2496.8529390933336,11703.998152
1377315154,2674.363577732,11703.998152
1377315454,2377.8622912146666,11703.998152
1377315754,3183.487497344,11703.998152
1377316054,3269.3168171253333,11703.998152
1377316354,3199.0928282133336,11703.998152
1377316654,2982.5688624013337,11703.998152
1377316954,2446.1356137679995,11703.998152
1377317254,1944.8143595906668,11703.998152
1377317554,2061.854341110667,11703.998152
1377317854,2011.1370157853328,11703.998152
1377318154,1985.7783531226669,11703.998152
1377318454,2081.361004697333,11703.998152
1377318754,2108.6703337186664,11703.998152
1377319054,2128.1769973053333,11703.998152
1377319354,2186.696988065333,11703.998152
1377319654,2457.83961192,11703.998152
1377319954,2972.815530608,11703.998152
1377320254,2609.991587896,11703.998152
1377320554,1808.267714484,11703.998152
1377320854,1981.8770204053333,11703.998152
1377321154,1999.4330176333333,11703.998152
1377321454,1940.913026873333,11703.998152
1377321754,2245.216978825333,11703.998152
1377322054,2477.346275506666,11703.998152
1377322354,1851.1823743746668,11703.998152
1377322655,1880.4423697546663,11703.998152
1377322955,1933.1103614386664,11703.998152
1377323255,1864.8370388853327,11703.998152
1377323555,1626.855743128,11703.998152
1377323855,1599.5464141066668,11703.998152
1377324155,1712.6850629093333,11703.998152
1377324455,1726.33972742,11703.998152
1377324755,1580.03975052,11703.998152
1377325055,1738.043725572,11703.998152
1377325355,1583.9410832373333,11703.998152
1377325655,1457.147769924,11703.998152
1377325955,1402.5291118813332,11703.998152
1377326255,1347.9104538386666,11703.998152
1377326554,1392.775780088,11703.998152
1377326854,1628.806409486667,11703.998152
1377327154,1966.271689536,11703.998152
1377327454,1509.815761608,11703.998152
1377327755,1897.9983669826668,11703.998152
1377328055,2036.495678448,11703.998152
1377328355,2167.1903244786668,11703.998152
1377328655,2728.9822357746666,11703.998152
1377328955,2407.1222865946665,11703.998152
1377329255,2130.127663664,11703.998152
1377329555,2206.203651652,11703.998152
1377329855,2803.107557404,11703.998152
1377330155,3561.9167709253334,11703.998152
1377330455,4250.501995534666,11703.998152
1377330755,4186.1300056986665,11703.998152
1377331055,3515.37944494,11703.998152
1377331355,4455.321963194667,11703.998152
1377331655,4377.295308848,11703.998152
1377331955,3210.7968263653333,11703.998152
1377332255,2955.25953338,11703.998152
1377332555,3429.271458536,11703.998152
1377332855,3913.036715485334,11703.998152
1377333155,4584.065942866667,11703.998152
1377333455,4946.889885578667,11703.998152
1377333755,5071.732532533333,11703.998152
1377334055,5118.40919183,11703.998152
1377334355,4859.109899438668,11703.998152
1377334655,5169.265850466667,11703.998152
1377334955,5163.413851390666,11703.998152
1377335255,5192.673846770667,11703.998152
1377335555,5537.941792254667,11703.998152
1377335855,4537.249950258667,11703.998152
1377336155,5038.571204436,11703.998152
1377336455,5366.283152692,11703.998152
1377336755,4983.952546393333,11703.998152
1377337055,5030.768539001333,11703.998152
1377337355,4790.836576885334,11703.998152
1377337655,4340.232648033334,11703.998152
1377337955,3323.935475168,11703.998152
1377338255,4112.004684069334,11703.998152
1377338555,4878.616563025333,11703.998152
1377338855,3983.2607043973335,11703.998152
1377339156,4035.789362770001,11703.998152
1377339456,3858.4180574426673,11703.998152
1377339756,3682.8580851626666,11703.998152
1377340056,3407.8141285906663,11703.998152
1377340356,3195.191495496,11703.998152
1377340656,3005.9768587053336,11703.998152
1377340956,3011.8288577813337,11703.998152
1377341256,2976.716863325333,11703.998152
1377341556,3682.8580851626666,11703.998152
1377341856,3993.98936937,11703.998152
1377342156,3084.003513052,11703.998152
1377342456,2894.7888762613334,11703.998152
1377342756,1962.3703568186663,11703.998152
1377343056,1517.6184270426666,11703.998152
1377343356,1794.613049973333,11703.998152
1377343656,2853.8248827293337,11703.998152
1377343956,2707.5249058293334,11703.998152
1377344256,3415.616794025333,11703.998152
1377344556,3298.576812505333,11703.998152
1377344856,3318.083476092,11703.998152
1377345156,2344.700963117333,11703.998152
1377345456,2492.951606376,11703.998152
1377345756,2229.611647956,11703.998152
1377346056,2553.4222634946664,11703.998152
1377346356,2016.989014861333,11703.998152
1377346656,2412.974285670666,11703.998152
1377346956,2725.0809030573337,11703.998152
1377347256,2883.0848781093337,11703.998152
1377347556,3044.990185878667,11703.998152
1377347856,3721.871412336001,11703.998152
1377348156,3349.294137830666,11703.998152
1377348456,3710.167414184,11703.998152
1377348757,3286.872814353333,11703.998152
1377349057,3310.2808106573334,11703.998152
1377349357,3396.1101304386666,11703.998152
1377349657,3899.3820509746665,11703.998152
1377349957,2637.3009169173333,11703.998152
1377350257,3173.7341655506666,11703.998152
1377350557,3671.1540870106655,11703.998152
1377350857,3082.052846693334,11703.998152
1377351157,2658.7582468626665,11703.998152
1377351457,1552.7304214986666,11703.998152
1377351757,1983.827686764,11703.998152
1377352057,2058.64967495,11703.998152
1377352357,1468.851768076,11703.998152
1377352657,1505.9144288906668,11703.998152
1377352957,3107.411509356,11703.998152
1377353257,3799.898066682667,11703.998152
1377353557,3968.90937333,11703.998152
1377353857,3967.655373528,11703.998152
1377354157,4198.80933703,11703.998152
1377354457,4533.348617541334,11703.998152
1377354757,3948.148709941333,11703.998152
1377355057,3513.28944527,11703.998152
1377355357,2627.547585124,11703.998152
1377355657,2758.2422311546666,11703.998152
1377355957,2966.963531532,11703.998152
1377356257,3699.2994159,11703.998152
1377356557,2881.134211750666,11703.998152
1377356857,3593.127432664,11703.998152
1377357157,2994.272860553334,11703.998152
1377357457,2085.2623374146665,11703.998152
1377357757,1634.6584085626666,11703.998152
1377358057,1870.6890379613333,11703.998152
1377358357,2177.77965614,11703.998152
1377358658,2114.5223327946665,11703.998152
1377358957,1952.6170250253333,11703.998152
1377359257,2085.2623374146665,11703.998152
1377359557,1913.603697852,11703.998152
1377359857,2130.127663664,11703.998152
1377360157,2061.854341110667,11703.998152
1377360457,1513.7170943253334,11703.998152
1377360757,1068.9651645493332,11703.998152
1377361057,1076.767829984,11703.998152
1377361357,1041.655835528,11703.998152
1377361657,1053.35983368,11703.998152
1377361957,1199.65981058,11703.998152
1377362257,940.2211848773331,11703.998152
1377362557,979.2345120506668,11703.998152
1377362857,979.2345120506668,11703.998152
1377363157,971.431846616,11703.998152
1377363457,988.9878438439998,11703.998152
1377363757,2077.45967198,11703.998152
1377364057,4876.665896666667,11703.998152
1377364357,4248.551329176,11703.998152
1377364657,3294.675479788,11703.998152
1377364957,2849.923550012,11703.998152
1377365257,2824.5648873493337,11703.998152
1377365558,5044.423203512,11703.998152
1377365858,4488.483291292,11703.998152
1377366158,3329.787474244,11703.998152
1377366458,2844.071550936,11703.998152
1377366758,2510.507603604,11703.998152
1377367058,2366.158293062667,11703.998152
1377367358,2416.875618388,11703.998152
1377367658,1790.711717256,11703.998152
1377367958,1722.4383947026663,11703.998152
1377368258,1238.673137753333,11703.998152
1377368558,1363.5157847080002,11703.998152
1377368858,1511.766427966667,11703.998152
1377369158,2122.324998229333,11703.998152
1377369458,711.9932209133334,11703.998152
1377369758,493.5185887426667,11703.998152
1377370058,585.1999076,11703.998152
1377370358,873.8985286826667,11703.998152
1377370658,2046.2490102413333,11703.998152
1377370958,2572.9289270813333,11703.998152
1377371258,2247.167645184,11703.998152
1377371558,1667.81973666,11703.998152
1377371858,2483.1982745826667,11703.998152
1377372158,2366.158293062667,11703.998152
1377372458,2254.970310618666,11703.998152
1377372758,3450.7287884813336,11703.998152
1377373058,3967.655373528,11703.998152
1377373358,3577.522101794667,11703.998152
1377373658,3637.9927589133335,11703.998152
1377373958,4966.396549165333,11703.998152
1377374259,4892.271227535999,11703.998152
1377374559,4428.012634173334,11703.998152
1377374859,3479.9887838613336,11703.998152
1377375159,3138.6221710946666,11703.998152
1377375459,3177.635498268,11703.998152
1377375759,3366.850135058666,11703.998152
1377376059,2647.0542487106663,11703.998152
1377376359,3329.787474244,11703.998152
1377376659,2551.471597136,11703.998152
1377376959,3329.787474244,11703.998152
1377377259,3245.9088208213334,11703.998152
1377377559,2565.1262616466665,11703.998152
1377377859,2260.8223096946667,11703.998152
1377378159,2297.884970509333,11703.998152
1377378459,1498.1117634560003,11703.998152
1377378759,1383.022448294667,11703.998152
1377379059,1336.206455686667,11703.998152
1377379359,764.6612125973334,11703.998152
1377379659,834.8852015093335,11703.998152
1377379959,1400.5784455226667,11703.998152
1377380259,791.9705416186666,11703.998152
1377380559,1168.4491488413337,11703.998152
1377380859,766.611878956,11703.998152
1377381159,1092.3731608533335,11703.998152
1377381459,784.1678761840001,11703.998152
1377381759,1449.3451044893332,11703.998152
1377382059,936.31985216,11703.998152
1377382359,1264.031800416,11703.998152
1377382659,1205.5118096560002,11703.998152
1377382959,1014.3465065066666,11703.998152
1377383259,1486.407765304,11703.998152
1377383559,2411.0236193120004,11703.998152
1377383859,2215.956983445333,11703.998152
1377384159,2894.7888762613334,11703.998152
1377384459,1868.7383716026668,11703.998152
1377384759,2110.621000077333,11703.998152
1377385060,2728.9822357746666,11703.998152
1377385360,3409.764794949334,11703.998152
1377385660,2155.4863263266666,11703.998152
1377385960,2003.334350350667,11703.998152
1377386260,1858.985039809333,11703.998152
1377386560,2176.943656272,11703.998152
1377386860,2249.118311542667,11703.998152
1377387160,2832.367552784,11703.998152
1377387460,1950.6663586666668,11703.998152
1377387760,1652.214405790667,11703.998152
1377388060,1985.7783531226669,11703.998152
1377388360,1601.497080465333,11703.998152
1377389260,3121.0661738666663,11703.998152
1377389560,1880.4423697546663,11703.998152
1377389860,1127.485155309333,11703.998152
1377390160,1254.2784686226669,11703.998152
1377390460,1080.669162701333,11703.998152
1377390760,1076.767829984,11703.998152
1377391060,1186.0051460693333,11703.998152
1377391360,1306.946460306667,11703.998152
1377391660,1217.215807808,11703.998152
1377391961,1580.03975052,11703.998152
1377392261,1576.1384178026667,11703.998152
1377392561,1712.6850629093333,11703.998152
1377392861,1104.0771590053334,11703.998152
1377393161,1146.991818896,11703.998152
1377393461,1519.5690934013337,11703.998152
1377393761,1580.03975052,11703.998152
1377394061,1591.743748672,11703.998152
1377394361,1736.0930592133332,11703.998152
1377394661,1851.1823743746668,11703.998152
1377394961,1650.263739432,11703.998152
1377395261,1332.3051229693333,11703.998152
1377395561,1199.65981058,11703.998152
1377395861,1104.0771590053334,11703.998152
1377396161,1745.8463910066669,11703.998152
1377396461,1702.9317311160005,11703.998152
1377396761,2805.0582237626663,11703.998152
1377397061,2219.858316162667,11703.998152
1377397361,2325.1942995306667,11703.998152
1377397661,1603.447746824,11703.998152
1377397961,1677.573068453333,11703.998152
1377398261,1423.9864418266668,11703.998152
1377398561,1375.21978286,11703.998152
1377398861,1443.493105413333,11703.998152
1377399161,1400.5784455226667,11703.998152
1377399461,1287.43979672,11703.998152
1377399761,1562.483753292,11703.998152
1377400061,2149.6343272506665,11703.998152
1377400362,2830.4168864253334,11703.998152
1377400662,2057.953008393333,11703.998152
1377400962,2005.2850167093327,11703.998152
1377401262,1964.321023177333,11703.998152
1377401562,2083.3116710560003,11703.998152
1377401862,3017.6808568573338,11703.998152
1377402162,3663.351421576,11703.998152
1377402462,3046.9408522373333,11703.998152
1377402762,2420.7769511053334,11703.998152
1377403062,2372.0102921386665,11703.998152
1377403362,2506.606270886666,11703.998152
1377403662,2955.25953338,11703.998152
1377403962,2896.73954262,11703.998152
1377404262,2578.7809261573334,11703.998152
1377404562,2832.367552784,11703.998152
1377404862,2736.784901209334,11703.998152
1377405162,2309.5889686613336,11703.998152
1377405462,2315.4409677373333,11703.998152
1377405762,1839.4783762226664,11703.998152
1377406062,1931.15969508,11703.998152
1377406362,1422.035775468,11703.998152
1377406662,1702.9317311160005,11703.998152
1377406962,2321.2929668133334,11703.998152
1377407262,2937.703536152,11703.998152
1377407562,2368.1089594213336,11703.998152
1377407862,2861.627548164,11703.998152
1377408162,3755.032740433334,11703.998152
1377408462,3245.9088208213334,11703.998152
1377408762,2773.847562024,11703.998152
1377409062,2879.1835453920003,11703.998152
1377409362,1189.9064787866666,11703.998152
1377409662,827.0825360746667,11703.998152
1377409962,788.0692089013334,11703.998152
1377410262,1250.377135905333,11703.998152
1377410562,1057.2611663973332,11703.998152
1377410862,1182.103813352,11703.998152
1377411162,1135.287820744,11703.998152
1377411463,1223.0678068839998,11703.998152
1377411763,1113.8304907986667,11703.998152
1377412063,1244.5251368293334,11703.998152
1377412363,1174.3011479173333,11703.998152
1377412663,1252.327802264,11703.998152
1377412963,1028.0011710173335,11703.998152
1377413263,875.8491950413332,11703.998152
1377413563,1049.458500962667,11703.998152
1377413863,522.7785841226666,11703.998152
1377414163,706.1412218373334,11703.998152
1377414463,811.4772052053333,11703.998152
1377414763,983.135844768,11703.998152
1377415063,1279.6371312853332,11703.998152
1377415363,1330.3544566106668,11703.998152
1377415663,967.5305138986664,11703.998152
1377415963,936.31985216,11703.998152
1377416263,1267.9331331333333,11703.998152
1377416563,751.0065480866666,11703.998152
1377416863,795.871874336,11703.998152
1377417163,934.3691858013334,11703.998152
1377417463,2059.903674752,11703.998152
1377417763,2395.418288442667,11703.998152
1377418063,2592.435590668,11703.998152
1377418363,2030.643679372,11703.998152
1377418663,1459.0984362826669,11703.998152
1377418963,1326.4531238933332,11703.998152
1377419263,1611.2504122586668,11703.998152
1377419564,1476.6544335106666,11703.998152
1377419864,2202.302318934667,11703.998152
1377420164,2530.0142671906665,11703.998152
1377420464,3505.347446524,11703.998152
1377420764,4057.3860260266665,11703.998152
1377421064,3526.8047764693333,11703.998152
1377421364,3388.3074650040003,11703.998152
1377421664,3673.104753369334,11703.998152
1377421964,3719.920745977333,11703.998152
1377422264,2344.700963117333,11703.998152
1377422564,4012.520699777333,11703.998152
1377422864,2988.420861477334,11703.998152
1377423164,2721.1795703400003,11703.998152
1377423464,3230.3034899520003,11703.998152
1377423764,2375.9116248560003,11703.998152
1377424064,1780.958385462667,11703.998152
1377424364,1583.9410832373333,11703.998152
1377424663,1977.975687688,11703.998152
1377424963,2403.2209538773336,11703.998152
1377425263,2293.983637792,11703.998152
1377425563,916.8131885733336,11703.998152
1377425863,852.4411987373335,11703.998152
1377426163,879.7505277586667,11703.998152
1377426463,918.763854932,11703.998152
1377426763,1106.027825364,11703.998152
1377427063,1308.8971266653332,11703.998152
1377427363,860.243864172,11703.998152
1377427663,891.4545259106666,11703.998152
1377427963,1131.3864880266667,11703.998152
1377428263,1158.695817048,11703.998152
1377428563,1728.2903937786668,11703.998152
1377428863,2370.0596257800003,11703.998152
1377429163,1242.5744704706667,11703.998152
1377429463,1351.811786556,11703.998152
1377429763,394.0346044506667,11703.998152
1377430063,317.95861646266667,11703.998152
1377430363,308.20528466933337,11703.998152
1377430664,466.2092597213333,11703.998152
1377430964,983.135844768,11703.998152
1377431264,304.30395195200003,11703.998152
1377431564,470.1105924386666,11703.998152
1377431864,470.1105924386666,11703.998152
1377432164,335.5146136906667,11703.998152
1377432464,319.9092828213333,11703.998152
1377432764,325.76128189733333,11703.998152
1377433064,1195.7584778626667,11703.998152
1377433364,1232.8211386773337,11703.998152
1377433664,419.39326711333325,11703.998152
1377433964,624.2132347733334,11703.998152
1377434264,676.8812264573334,11703.998152
1377434564,341.3666127666667,11703.998152
1377434864,296.5012865173333,11703.998152
1377435164,306.2546183106667,11703.998152
1377435464,349.16927820133327,11703.998152
1377435764,934.3691858013334,11703.998152
1377436064,1063.1131654733333,11703.998152
1377436364,356.971943636,11703.998152
1377436664,368.675941788,11703.998152
1377436964,520.8279177640001,11703.998152
1377437264,536.4332486333333,11703.998152
1377437564,791.9705416186666,11703.998152
1377437864,507.1732532533333,11703.998152
1377438164,372.5772745053333,11703.998152
1377438464,419.39326711333325,11703.998152
1377438764,331.6132809733333,11703.998152
1377439064,351.11994456,11703.998152
1377439364,811.4772052053333,11703.998152
1377439664,2594.3862570266665,11703.998152
1377439964,345.267945484,11703.998152
1377440264,327.711948256,11703.998152
1377440564,323.8106155386667,11703.998152
1377440864,294.5506201586667,11703.998152
1377441164,532.531915916,11703.998152
1377441464,450.603928852,11703.998152
1377441764,353.0706109186667,11703.998152
1377442064,366.72527542933335,11703.998152
1377442364,337.46528004933333,11703.998152
1377442665,1474.703767152,11703.998152
1377442965,1070.915830908,11703.998152
1377443265,2719.2289039813336,11703.998152
1377443565,380.37993994,11703.998152
1377443865,349.16927820133327,11703.998152
1377444165,353.0706109186667,11703.998152
1377444465,356.971943636,11703.998152
1377444765,910.9611894973334,11703.998152
1377445065,604.7065711866667,11703.998152
1377445365,294.5506201586667,11703.998152
1377445665,312.1066173866667,11703.998152
1377445965,302.35328559333334,11703.998152
1377446265,339.415946408,11703.998152
1377446565,754.907880804,11703.998152
1377446865,575.4465758066667,11703.998152
1377447165,417.4426007546667,11703.998152
1377447465,343.3172791253333,11703.998152
1377447765,327.711948256,11703.998152
1377448065,351.11994456,11703.998152
1377448365,538.383914992,11703.998152
1377448665,431.09726526533336,11703.998152
1377448965,343.3172791253333,11703.998152
1377449265,351.11994456,11703.998152
1377449565,298.451952876,11703.998152
1377449865,323.8106155386667,11703.998152
1377450165,1211.363808732,11703.998152
1377450465,2280.3289732813337,11703.998152
1377450765,372.5772745053333,11703.998152
1377451065,433.04793162400006,11703.998152
1377451365,355.0212772773333,11703.998152
1377451665,355.0212772773333,11703.998152
1377451965,1451.2957708479998,11703.998152
1377452266,2990.3715278360005,11703.998152
1377452566,1488.3584316626666,11703.998152
1377452866,887.5531931933334,11703.998152
1377453166,809.5265388466667,11703.998152
1377453466,829.0332024333334,11703.998152
1377453766,1498.1117634560003,11703.998152
1377454066,3132.7701720186665,11703.998152
1377454366,1661.967737584,11703.998152
1377454666,1010.4451737893334,11703.998152
1377454966,809.5265388466667,11703.998152
1377455266,1129.435821668,11703.998152
1377455566,3084.003513052,11703.998152
1377455866,2586.583591592,11703.998152
1377456166,2744.587566644,11703.998152
1377456466,2295.934304150667,11703.998152
1377456766,2085.2623374146665,11703.998152
1377457066,2266.674308770667,11703.998152
1377457366,2826.5155537079995,11703.998152
1377457666,1252.327802264,11703.998152
1377457966,1145.0411525373331,11703.998152
1377458266,1316.6997921,11703.998152
1377458566,1291.3411294373334,11703.998152
1377458866,1041.655835528,11703.998152
1377459166,1521.5197597600002,11703.998152
1377459466,1301.0944612306669,11703.998152
1377459766,990.9385102026666,11703.998152
1377460066,938.2705185186664,11703.998152
1377460366,793.9212079773334,11703.998152
1377460666,1051.4091673213336,11703.998152
1377460966,2297.884970509333,11703.998152
1377461266,2849.923550012,11703.998152
1377461566,2219.858316162667,11703.998152
1377461866,1388.8744473706663,11703.998152
1377462166,1242.5744704706667,11703.998152
1377462466,1269.883799492,11703.998152
1377462766,2688.0182422426665,11703.998152
1377463066,2783.600893817333,11703.998152
1377463366,2327.144965889333,11703.998152
1377463666,1425.9371081853333,11703.998152
1377463966,1661.967737584,11703.998152
1377464266,1398.627779164,11703.998152
1377464566,2016.989014861333,11703.998152
1377464866,1369.3677837839998,11703.998152
1377465167,1139.1891534613335,11703.998152
1377465467,1049.458500962667,11703.998152
1377465767,893.4051922693334,11703.998152
1377466067,946.0731839533332,11703.998152
1377466367,1515.667760684,11703.998152
1377466667,1084.5704954186665,11703.998152
1377466967,1143.0904861786669,11703.998152
1377467267,1361.5651183493333,11703.998152
1377467567,899.2571913453335,11703.998152
1377467867,1172.3504815586666,11703.998152
1377468167,1927.2583623626667,11703.998152
1377468467,1480.555766228,11703.998152
1377468767,1332.3051229693333,11703.998152
1377469067,1414.233110033333,11703.998152
1377469367,1661.967737584,11703.998152
1377469667,1418.1344427506667,11703.998152
1377469967,1775.1063863866668,11703.998152
1377470267,1658.0664048666667,11703.998152
1377470567,1648.313073073333,11703.998152
1377470867,1732.1917264960002,11703.998152
1377471167,1570.2864187266669,11703.998152
1377471467,1186.0051460693333,11703.998152
1377471767,2418.8262847466667,11703.998152
1377472067,1699.0303983986669,11703.998152
1377472367,1464.950435358667,11703.998152
1377472667,1498.1117634560003,11703.998152
1377472967,1958.4690241013327,11703.998152
1377473267,3050.8421849546667,11703.998152
1377473567,3023.532855933334,11703.998152
1377473867,2886.986210826666,11703.998152
1377474167,3355.146136906666,11703.998152
1377474467,3440.975456688,11703.998152
1377474767,3009.8781914226665,11703.998152
1377475067,3095.707511204,11703.998152
1377475367,3206.895493648,11703.998152
1377475667,4135.412680373334,11703.998152
1377475967,2812.8608891973336,11703.998152
1377476267,1546.8784224226663,11703.998152
1377476567,2159.387659044,11703.998152
1377476867,3109.362175714667,11703.998152
1377477168,2385.6649566493334,11703.998152
1377477468,3165.931500116,11703.998152
1377477768,3269.3168171253333,11703.998152
1377478068,2159.387659044,11703.998152
1377478368,2608.040921537334,11703.998152
1377478668,1950.6663586666668,11703.998152
1377478968,1880.4423697546663,11703.998152
1377479268,1433.73977362,11703.998152
1377479568,1519.5690934013337,11703.998152
1377479868,1738.043725572,11703.998152
1377480168,1607.3490795413331,11703.998152
1377480468,2373.960958497333,11703.998152
1377480768,2342.7502967586665,11703.998152
1377481068,2865.5288808813334,11703.998152
1377481368,3989.1127034733336,11703.998152
1377481668,4172.475341188,11703.998152
1377481968,3807.700732117333,11703.998152
1377482268,1866.787705244,11703.998152
1377482568,1583.9410832373333,11703.998152
1377482868,2081.361004697333,11703.998152
1377483168,1798.514382690667,11703.998152
1377483468,1624.9050767693334,11703.998152
1377483768,2539.767598984,11703.998152
1377484068,1884.343702472,11703.998152
1377484368,3013.77952414,11703.998152
1377484668,2742.636900285333,11703.998152
1377484968,3013.77952414,11703.998152
1377485268,3698.463416032,11703.998152
1377485568,3663.351421576,11703.998152
1377485868,2869.430213598667,11703.998152
1377486168,2924.048871641334,11703.998152
1377486468,2834.3182191426667,11703.998152
1377486768,2112.571666436,11703.998152
1377487068,1107.9784917226666,11703.998152
1377487368,1244.5251368293334,11703.998152
1377487668,1804.3663817666668,11703.998152
1377487968,2018.93968122,11703.998152
1377488269,1716.586395626667,11703.998152
1377488569,1654.1650721493334,11703.998152
1377488869,2925.999538,11703.998152
1377489169,2955.25953338,11703.998152
1377489469,3121.0661738666663,11703.998152
1377489769,2791.4035592520004,11703.998152
1377490068,3286.872814353333,11703.998152
1377490368,3279.0701489186667,11703.998152
1377490668,3228.3528235933336,11703.998152
1377490968,3082.052846693334,11703.998152
1377491268,3505.347446524,11703.998152
1377491568,3033.286187726667,11703.998152
1377491868,2853.8248827293337,11703.998152
1377492168,3134.7208383773336,11703.998152
1377492468,2943.555535228,11703.998152
1377492768,3046.9408522373333,11703.998152
1377493068,3380.504799569333,11703.998152
1377493368,2931.851537076,11703.998152
1377493668,3165.931500116,11703.998152
1377493968,2906.492874413333,11703.998152
1377494268,2459.790278278667,11703.998152
1377494569,2567.0769280053337,11703.998152
1377494869,2268.624975129333,11703.998152
1377495169,2810.9102228386664,11703.998152
1377495469,3370.751467776,11703.998152
1377495769,2629.498251482666,11703.998152
1377496069,2652.9062477866664,11703.998152
1377496369,2719.2289039813336,11703.998152
1377496669,2847.9728836533336,11703.998152
1377496969,1080.669162701333,11703.998152
1377497269,1244.5251368293334,11703.998152
1377497569,1265.9824667746668,11703.998152
1377497869,1230.8704723186668,11703.998152
1377498169,1187.9558124280002,11703.998152
1377498469,1047.507834604,11703.998152
1377498769,1078.7184963426666,11703.998152
1377499069,1070.915830908,11703.998152
1377499369,1072.8664972666666,11703.998152
1377499669,1238.673137753333,11703.998152
1377499969,1860.9357061680005,11703.998152
1377500269,1580.03975052,11703.998152
1377500569,1583.9410832373333,11703.998152
1377500869,1716.586395626667,11703.998152
1377501169,1656.1157385079998,11703.998152
1377501470,1759.5010555173335,11703.998152
1377501770,1839.4783762226664,11703.998152
1377502070,1831.675710788,11703.998152
1377502370,1792.6623836146669,11703.998152
1377502670,1857.0343734506664,11703.998152
1377502970,630.0652338493334,11703.998152
1377503270,378.42927358133335,11703.998152
1377503570,1203.5611432973333,11703.998152
1377503870,1262.0811340573334,11703.998152
1377504170,3661.400755217334,11703.998152
1377504470,509.123919612,11703.998152
1377504770,403.787936244,11703.998152
1377505070,382.3306062986667,11703.998152
1377505370,395.9852708093333,11703.998152
1377505670,421.343933472,11703.998152
1377505970,378.42927358133335,11703.998152
1377506270,356.971943636,11703.998152
1377506570,405.7386026026667,11703.998152
1377506870,425.2452661893333,11703.998152
1377507170,374.5279408640001,11703.998152
1377507470,378.42927358133335,11703.998152
1377507770,436.9492643413333,11703.998152
1377508070,661.275895588,11703.998152
1377508370,456.455927928,11703.998152
1377508670,329.66261461466667,11703.998152
1377508970,1819.971712636,11703.998152
1377509270,2258.871643336,11703.998152
1377509570,347.21861184266663,11703.998152
1377509870,360.87327635333327,11703.998152
1377510170,694.4372236853333,11703.998152
1377510471,1029.951837376,11703.998152
1377510771,920.7145212906668,11703.998152
1377511071,2600.2382561026666,11703.998152
1377511371,3337.5901396786667,11703.998152
1377511671,803.6745397706666,11703.998152
1377511971,897.3065249866667,11703.998152
1377512271,873.8985286826667,11703.998152
1377512571,862.1945305306667,11703.998152
1377512871,907.05985678,11703.998152
1377513171,1102.1264926466663,11703.998152
1377513471,1121.6331562333337,11703.998152
1377513771,1094.323827212,11703.998152
1377514071,1061.1624991146666,11703.998152
1377514371,1094.323827212,11703.998152
1377514671,1209.4131423733334,11703.998152
1377514971,1187.9558124280002,11703.998152
1377515271,1028.0011710173335,11703.998152
1377515571,940.2211848773331,11703.998152
1377515871,920.7145212906668,11703.998152
1377516171,926.5665203666666,11703.998152
1377516471,938.2705185186664,11703.998152
1377516771,930.467853084,11703.998152
1377517071,749.0558817280001,11703.998152
1377517371,372.5772745053333,11703.998152
1377517671,355.0212772773333,11703.998152
1377517971,337.46528004933333,11703.998152
1377518271,316.00795010400003,11703.998152
1377518571,360.87327635333327,11703.998152
1377518871,310.155951028,11703.998152
1377519172,319.9092828213333,11703.998152
1377519472,423.2945998306667,11703.998152
1377519772,1258.17980134,11703.998152
1377520072,415.491934396,11703.998152
1377520372,335.5146136906667,11703.998152
1377520672,308.20528466933337,11703.998152
1377520972,296.5012865173333,11703.998152
1377521272,362.823942712,11703.998152
1377521572,316.00795010400003,11703.998152
1377521872,331.6132809733333,11703.998152
1377522172,390.1332717333333,11703.998152
1377522472,382.3306062986667,11703.998152
1377522771,323.8106155386667,11703.998152
1377523071,296.5012865173333,11703.998152
1377523371,397.935937168,11703.998152
1377523671,436.9492643413333,11703.998152
1377523971,421.343933472,11703.998152
1377524271,331.6132809733333,11703.998152
1377524571,317.95861646266667,11703.998152
1377524871,368.675941788,11703.998152
1377525171,355.0212772773333,11703.998152
1377525471,358.9226099946667,11703.998152
1377525771,530.5812495573333,11703.998152
1377526071,637.867899284,11703.998152
1377526371,335.5146136906667,11703.998152
1377526671,368.675941788,11703.998152
1377526971,321.85994918,11703.998152
1377527271,308.20528466933337,11703.998152
1377527571,587.1505739586667,11703.998152
1377527871,378.42927358133335,11703.998152
1377528171,327.711948256,11703.998152
1377528472,347.21861184266663,11703.998152
1377528772,351.11994456,11703.998152
1377529072,1416.1837763919998,11703.998152
1377529372,782.2172098253334,11703.998152
1377529672,2986.4701951186667,11703.998152
1377529972,368.675941788,11703.998152
1377530272,276.99462293066665,11703.998152
1377530572,323.8106155386667,11703.998152
1377530872,339.415946408,11703.998152
1377531172,992.8891765613334,11703.998152
1377531472,805.6252061293334,11703.998152
1377531772,327.711948256,11703.998152
1377532072,298.451952876,11703.998152
1377532372,294.5506201586667,11703.998152
1377532672,257.487959344,11703.998152
1377532972,661.275895588,11703.998152
1377533272,641.7692320013334,11703.998152
1377533572,372.5772745053333,11703.998152
1377533872,302.35328559333334,11703.998152
1377534172,288.6986210826667,11703.998152
1377534472,327.711948256,11703.998152
1377534772,731.4998845,11703.998152
1377535072,401.8372698853333,11703.998152
1377535372,275.043956572,11703.998152
1377535672,253.58662662666663,11703.998152
1377535972,220.42529852933333,11703.998152
1377536272,286.747954724,11703.998152
1377536572,916.8131885733336,11703.998152
1377536872,2412.974285670666,11703.998152
1377537172,2428.57961654,11703.998152
1377537472,2108.6703337186664,11703.998152
1377537772,912.911855856,11703.998152
1377538072,302.35328559333334,11703.998152
1377538372,1232.8211386773337,11703.998152
1377538672,3954.000709017333,11703.998152
1377538972,1441.5424390546668,11703.998152
1377539272,1248.4264695466668,11703.998152
1377539572,819.27987064,11703.998152
1377539873,711.9932209133334,11703.998152
1377540173,1603.447746824,11703.998152
1377540473,3772.588737661333,11703.998152
1377540773,1271.834465850667,11703.998152
1377541073,918.763854932,11703.998152
1377541373,1146.991818896,11703.998152
1377541673,1732.1917264960002,11703.998152
1377541973,2777.748894741333,11703.998152
1377542273,4047.6326942333335,11703.998152
1377542573,2857.726215446666,11703.998152
1377542873,2742.636900285333,11703.998152
1377543173,2592.435590668,11703.998152
1377543473,2085.2623374146665,11703.998152
1377543773,2682.1662431666664,11703.998152
1377544073,1749.7477237239998,11703.998152
1377544373,2469.5436100720003,11703.998152
1377544673,2949.407534304,11703.998152
1377544973,2797.255558328,11703.998152
1377545273,2793.354225610666,11703.998152
1377545573,3284.9221479946664,11703.998152
1377545873,2621.695586048,11703.998152
1377546173,1788.7610508973337,11703.998152
1377546473,1823.8730453533333,11703.998152
1377546773,1794.613049973333,11703.998152
1377547073,1603.447746824,11703.998152
1377547373,2455.888945561333,11703.998152
1377547673,2578.7809261573334,11703.998152
1377547973,1899.9490333413328,11703.998152
1377548273,2233.512980673333,11703.998152
1377548573,2044.298343882667,11703.998152
1377548873,1771.2050536693332,11703.998152
1377549173,1968.2223558946664,11703.998152
1377549473,2110.621000077333,11703.998152
1377549774,2927.9502043586667,11703.998152
1377550074,2130.127663664,11703.998152
1377550374,2018.93968122,11703.998152
1377550674,2198.400986217333,11703.998152
1377550974,1874.5903706786664,11703.998152
1377551274,1174.3011479173333,11703.998152
1377551574,1045.5571682453333,11703.998152
1377551874,918.763854932,11703.998152
1377552174,784.1678761840001,11703.998152
1377552474,1037.7545028106667,11703.998152
1377552774,1804.3663817666668,11703.998152
1377553074,996.7905092786666,11703.998152
1377553374,1078.7184963426666,11703.998152
1377553674,1345.95978748,11703.998152
1377553974,922.6651876493332,11703.998152
1377554274,1517.6184270426666,11703.998152
1377554574,2781.650227458667,11703.998152
1377554874,2011.1370157853328,11703.998152
1377555174,1605.398413182667,11703.998152
1377555474,1244.5251368293334,11703.998152
1377555774,2254.970310618666,11703.998152
1377556074,2221.8089825213333,11703.998152
1377556374,2633.3995842,11703.998152
1377556674,2173.042323554667,11703.998152
1377556974,1976.0250213293327,11703.998152
1377557274,1482.5064325866667,11703.998152
1377557574,1398.627779164,11703.998152
1377557874,1566.3850860093332,11703.998152
1377558174,2440.2836146920004,11703.998152
1377558474,1700.9810647573331,11703.998152
1377558774,1995.531684916,11703.998152
1377559074,3417.567460384,11703.998152
1377559374,3519.002111034667,11703.998152
1377559674,1983.827686764,11703.998152
1377559974,2557.323596212,11703.998152
1377560274,2518.3102690386663,11703.998152
1377560574,2637.3009169173333,11703.998152
1377560874,2740.6862339266663,11703.998152
1377561174,2366.158293062667,11703.998152
1377561474,2243.266312466667,11703.998152
1377561774,2746.5382330026664,11703.998152
1377562074,3019.631523216,11703.998152
1377562374,2208.154318010667,11703.998152
1377562674,3072.2995149,11703.998152
1377562974,2266.674308770667,11703.998152
1377563274,2087.213003773333,11703.998152
1377563574,2001.383683992,11703.998152
1377563874,2165.23965812,11703.998152
1377564174,3072.2995149,11703.998152
1377564474,1972.1236886120005,11703.998152
1377564774,1771.2050536693332,11703.998152
1377565074,1761.4517218760002,11703.998152
1377565374,2069.6570065453334,11703.998152
1377565674,1997.4823512746668,11703.998152
1377565974,2018.93968122,11703.998152
1377566274,1757.5503891586666,11703.998152
1377566574,1699.0303983986669,11703.998152
1377566874,1603.447746824,11703.998152
1377567175,1636.609074921333,11703.998152
1377567475,1562.483753292,11703.998152
1377567775,2005.2850167093327,11703.998152
1377568075,2054.051675676,11703.998152
1377568375,1985.7783531226669,11703.998152
1377568675,1989.6796858400005,11703.998152
1377568975,2387.615623008,11703.998152
1377569275,2412.974285670666,11703.998152
1377569575,2401.2702875186665,11703.998152
1377569875,1332.3051229693333,11703.998152
1377570175,1336.206455686667,11703.998152
1377570475,1972.1236886120005,11703.998152
1377570775,1950.6663586666668,11703.998152
1377571075,2851.8742163706665,11703.998152
1377571375,3068.3981821826665,11703.998152
1377571675,2545.61959806,11703.998152
1377571975,1466.9011017173334,11703.998152
1377572275,1408.3811109573332,11703.998152
1377572575,2674.363577732,11703.998152
1377572875,4706.957923462667,11703.998152
1377573175,4763.527247864,11703.998152
1377573475,4527.496618465334,11703.998152
1377573776,3448.778122122667,11703.998152
1377574076,3813.552731193334,11703.998152
1377574376,3608.7327635333336,11703.998152
1377574676,3677.0060860866665,11703.998152
1377574976,2032.5943457306669,11703.998152
1377575276,953.875849388,11703.998152
1377575576,922.6651876493332,11703.998152
1377575876,1232.8211386773337,11703.998152
1377576176,2139.880995457333,11703.998152
1377576476,3493.643448372,11703.998152
1377576776,4080.794022330667,11703.998152
1377577076,3727.7234114120006,11703.998152
1377577376,2416.875618388,11703.998152
1377577676,2044.298343882667,11703.998152
1377577976,1870.6890379613333,11703.998152
1377578276,2551.471597136,11703.998152
1377578576,2645.103582352,11703.998152
1377578876,3394.1594640800004,11703.998152
1377579176,3124.967506584,11703.998152
1377579476,1511.766427966667,11703.998152
1377579776,1468.851768076,11703.998152
1377580076,1896.047700624,11703.998152
1377580376,2064.91967396,11703.998152
1377580676,1675.622402094667,11703.998152
1377580976,1743.895724648,11703.998152
1377581276,1345.95978748,11703.998152
1377581576,1320.6011248173336,11703.998152
1377581876,1189.9064787866666,11703.998152
1377582176,1763.402388234667,11703.998152
1377582476,1798.514382690667,11703.998152
1377582776,1857.0343734506664,11703.998152
1377583077,1531.2730915533332,11703.998152
1377583377,1412.2824436746669,11703.998152
1377583677,1153.67981784,11703.998152
1377583977,1176.251814276,11703.998152
1377584277,1265.9824667746668,11703.998152
1377584577,1197.7091442213334,11703.998152
1377584877,985.0865111266666,11703.998152
1377585177,1022.1491719413336,11703.998152
1377585477,992.8891765613334,11703.998152
1377585777,1018.247839224,11703.998152
1377586077,994.83984292,11703.998152
1377586377,1070.915830908,11703.998152
1377586677,1193.807811504,11703.998152
1377586977,1143.0904861786669,11703.998152
1377587277,1281.16979771,11703.998152
1377587577,1020.1985055826668,11703.998152
1377587877,1006.543841072,11703.998152
1377588177,1070.07983104,11703.998152
1377588477,1053.35983368,11703.998152
1377588776,1086.5211617773334,11703.998152
1377589076,1312.51979276,11703.998152
1377589376,1771.2050536693332,11703.998152
1377589676,1736.0930592133332,11703.998152
1377589976,1872.63970432,11703.998152
1377590277,1581.9904168786668,11703.998152
1377590577,1966.271689536,11703.998152
1377590877,1808.267714484,11703.998152
1377591177,1677.573068453333,11703.998152
1377591477,1864.8370388853327,11703.998152
1377591777,1718.5370619853334,11703.998152
1377592077,821.2305369986666,11703.998152
1377592377,331.6132809733333,11703.998152
1377592677,356.971943636,11703.998152
1377592977,312.1066173866667,11703.998152
1377593277,329.66261461466667,11703.998152
1377593577,343.3172791253333,11703.998152
1377593877,316.00795010400003,11703.998152
1377594177,362.823942712,11703.998152
1377594477,382.3306062986667,11703.998152
1377594777,341.3666127666667,11703.998152
1377595077,317.95861646266667,11703.998152
1377595377,1712.6850629093333,11703.998152
1377595677,2329.095632248,11703.998152
1377595977,353.0706109186667,11703.998152
1377596277,347.21861184266663,11703.998152
1377596577,733.4505508586667,11703.998152
1377596877,1096.274493570667,11703.998152
1377597177,916.8131885733336,11703.998152
1377597477,807.5758724880001,11703.998152
1377597777,895.355858628,11703.998152
1377598077,807.5758724880001,11703.998152
1377598377,940.2211848773331,11703.998152
1377598677,842.687866944,11703.998152
1377598977,846.5891996613334,11703.998152
1377599277,961.6785148226668,11703.998152
1377599577,1113.8304907986667,11703.998152
1377599877,1102.1264926466663,11703.998152
1377600177,1078.7184963426666,11703.998152
1377600477,1125.5344889506666,11703.998152
1377600777,1117.731823516,11703.998152
1377601077,1106.027825364,11703.998152
1377601377,1100.175826288,11703.998152
1377601677,1119.6824898746663,11703.998152
1377601977,871.947862324,11703.998152
1377602278,858.2931978133333,11703.998152
1377602578,949.9745166706668,11703.998152
1377602878,897.3065249866667,11703.998152
1377603178,918.763854932,11703.998152
1377603478,772.4638780319999,11703.998152
1377603778,333.563947332,11703.998152
1377604078,347.21861184266663,11703.998152
1377604378,349.16927820133327,11703.998152
1377604678,341.3666127666667,11703.998152
1377604978,372.5772745053333,11703.998152
1377605278,331.6132809733333,11703.998152
1377605578,407.6892689613333,11703.998152
1377605878,594.9532393933333,11703.998152
1377606178,1355.7131192733332,11703.998152
1377606478,362.823942712,11703.998152
1377606778,448.6532624933333,11703.998152
1377607078,421.343933472,11703.998152
1377607378,421.343933472,11703.998152
1377607678,355.0212772773333,11703.998152
1377607978,370.6266081466667,11703.998152
1377608278,345.267945484,11703.998152
1377608578,425.2452661893333,11703.998152
1377608878,411.5906016786667,11703.998152
1377609178,370.6266081466667,11703.998152
1377609478,362.823942712,11703.998152
1377609778,481.8145905906667,11703.998152
1377610078,489.61725602533335,11703.998152
1377610378,358.9226099946667,11703.998152
1377610678,351.11994456,11703.998152
1377610978,380.37993994,11703.998152
1377611278,333.563947332,11703.998152
1377611578,319.9092828213333,11703.998152
1377611878,347.21861184266663,11703.998152
1377612178,721.7465527066665,11703.998152
1377612478,536.4332486333333,11703.998152
1377612778,380.37993994,11703.998152
1377613078,374.5279408640001,11703.998152
1377613378,347.21861184266663,11703.998152
1377613678,317.95861646266667,11703.998152
1377613978,622.2625684146667,11703.998152
1377614279,366.72527542933335,11703.998152
1377614579,327.711948256,11703.998152
1377614879,343.3172791253333,11703.998152
1377615179,368.675941788,11703.998152
1377615479,1591.743748672,11703.998152
1377615779,1026.0505046586666,11703.998152
1377616079,3983.2607043973335,11703.998152
1377616379,2292.0329714333334,11703.998152
1377616679,2141.831661816,11703.998152
1377616979,657.3745628706665,11703.998152
1377617279,353.0706109186667,11703.998152
1377617579,927.95985348,11703.998152
1377617879,823.1812033573334,11703.998152
1377618179,394.0346044506667,11703.998152
1377618479,372.5772745053333,11703.998152
1377618779,339.415946408,11703.998152
1377619079,265.29062477866665,11703.998152
1377619379,819.27987064,11703.998152
1377619679,593.0025730346666,11703.998152
1377619979,374.5279408640001,11703.998152
1377620279,312.1066173866667,11703.998152
1377620579,339.415946408,11703.998152
1377620879,337.46528004933333,11703.998152
1377621179,790.0198752599999,11703.998152
1377621479,542.2852477093332,11703.998152
1377621779,345.267945484,11703.998152
1377622079,345.267945484,11703.998152
1377622379,316.00795010400003,11703.998152
1377622679,314.0572837453333,11703.998152
1377622979,1011.5598402800002,11703.998152
1377623279,2292.0329714333334,11703.998152
1377623579,300.4026192346667,11703.998152
1377623879,411.5906016786667,11703.998152
1377624179,364.7746090706667,11703.998152
1377624479,362.823942712,11703.998152
1377624779,1447.394438130667,11703.998152
1377625079,3105.460842997333,11703.998152
1377625379,1462.999769,11703.998152
1377625679,770.5132116733334,11703.998152
1377625979,895.355858628,11703.998152
1377626279,780.2665434666666,11703.998152
1377626579,1722.4383947026663,11703.998152
1377626879,3195.191495496,11703.998152
1377627179,2416.875618388,11703.998152
1377627479,1394.726446446667,11703.998152
1377627779,1187.9558124280002,11703.998152
1377628079,1640.5104076386667,11703.998152
1377628379,2436.3822819746665,11703.998152
1377628679,2730.9329021333338,11703.998152
1377628979,2500.754271810666,11703.998152
1377629279,2734.8342348506662,11703.998152
1377629580,2174.992989913333,11703.998152
1377629880,2276.427640564,11703.998152
1377630180,2869.430213598667,11703.998152
1377630480,2721.1795703400003,11703.998152
1377630780,1566.3850860093332,11703.998152
1377631080,1388.8744473706663,11703.998152
1377631380,1474.703767152,11703.998152
1377631680,2182.795655348,11703.998152
1377631980,2196.4503198586667,11703.998152
1377632280,1935.061027797333,11703.998152
1377632580,2405.1716202360003,11703.998152
1377632880,1656.1157385079998,11703.998152
1377633180,1968.2223558946664,11703.998152
1377633480,1712.6850629093333,11703.998152
1377633780,2896.73954262,11703.998152
1377634080,2514.4089363213334,11703.998152
1377634380,2171.091657196,11703.998152
1377634680,2096.966335566667,11703.998152
1377634980,2075.509005621333,11703.998152
1377635280,2007.235683068,11703.998152
1377635580,1734.142392854667,11703.998152
1377635880,1320.6011248173336,11703.998152
1377636180,1771.2050536693332,11703.998152
1377636480,1638.55974128,11703.998152
1377636780,1648.313073073333,11703.998152
1377637080,1170.3998152,11703.998152
1377637380,1355.7131192733332,11703.998152
1377637680,497.41992146000007,11703.998152
1377637980,708.0918881959999,11703.998152
1377638280,600.8052384693334,11703.998152
1377638581,671.0292273813334,11703.998152
1377638881,553.9892458613333,11703.998152
1377639181,1697.0797320400002,11703.998152
1377639481,946.0731839533332,11703.998152
1377639781,881.7011941173333,11703.998152
1377640081,799.7732070533334,11703.998152
1377640381,604.7065711866667,11703.998152
1377640681,764.6612125973334,11703.998152
1377640981,1418.1344427506667,11703.998152
1377641281,710.0425545546667,11703.998152
1377641581,745.1545490106666,11703.998152
1377641881,774.4145443906666,11703.998152
1377642181,663.2265619466666,11703.998152
1377642481,743.2038826520001,11703.998152
1377642781,1092.3731608533335,11703.998152
1377643081,684.6838918919999,11703.998152
1377643381,674.9305600986667,11703.998152
1377643681,762.7105462386667,11703.998152
1377643981,604.7065711866667,11703.998152
1377644281,713.943887272,11703.998152
1377644581,1858.985039809333,11703.998152
1377644881,1379.1211155773333,11703.998152
1377645181,1349.861120197333,11703.998152
1377645481,1262.0811340573334,11703.998152
1377645781,815.3785379226666,11703.998152
1377646081,967.5305138986664,11703.998152
1377646381,1049.458500962667,11703.998152
1377646681,1107.9784917226666,11703.998152
1377646981,1072.8664972666666,11703.998152
1377647281,987.0371774853334,11703.998152
1377647581,1113.8304907986667,11703.998152
1377647881,1314.749125741333,11703.998152
1377648181,1841.4290425813333,11703.998152
1377648481,2026.7423466546668,11703.998152
1377648781,559.8412449373333,11703.998152
1377649081,663.2265619466666,11703.998152
1377649381,626.163901132,11703.998152
1377649681,1238.673137753333,11703.998152
1377649982,1037.7545028106667,11703.998152
1377650282,1197.7091442213334,11703.998152
1377650582,1205.5118096560002,11703.998152
1377650882,1724.3890610613337,11703.998152
1377651182,1386.923781012,11703.998152
1377651482,1960.41969046,11703.998152
1377651782,2313.4903013786666,11703.998152
1377652082,1882.393036113333,11703.998152
1377652382,1607.3490795413331,11703.998152
1377652682,1264.031800416,11703.998152
1377652982,1328.403790252,11703.998152
1377653282,1213.3144750906667,11703.998152
1377653582,1486.407765304,11703.998152
1377653882,1154.7944843306668,11703.998152
1377654182,1088.471828136,11703.998152
1377654482,758.8092135213333,11703.998152
1377654782,922.6651876493332,11703.998152
1377655082,1045.5571682453333,11703.998152
1377655382,1890.195701548,11703.998152
1377655682,1143.0904861786669,11703.998152
1377655982,1104.0771590053334,11703.998152
1377656282,2237.414313390667,11703.998152
1377656582,2130.127663664,11703.998152
1377656882,1831.675710788,11703.998152
1377657182,1371.3184501426667,11703.998152
1377657482,1340.1077884039998,11703.998152
1377657782,2005.2850167093327,11703.998152
1377658082,1845.3303752986667,11703.998152
1377658382,2020.8903475786667,11703.998152
1377658682,2606.0902551786667,11703.998152
1377658982,1831.675710788,11703.998152
1377659282,2204.252985293333,11703.998152
1377659582,2249.118311542667,11703.998152
1377659882,2200.351652576,11703.998152
1377660182,2280.3289732813337,11703.998152
1377660482,2206.203651652,11703.998152
1377660782,1814.11971356,11703.998152
1377661082,2344.700963117333,11703.998152
1377661382,2885.035544468,11703.998152
1377661682,3072.2995149,11703.998152
1377661982,3195.191495496,11703.998152
1377662282,3454.6301211986665,11703.998152
1377662582,2547.5702644186663,11703.998152
1377662882,2695.8209076773333,11703.998152
1377663182,3719.920745977333,11703.998152
1377663482,3310.2808106573334,11703.998152
1377663782,2299.835636868,11703.998152
1377664082,2307.638302302667,11703.998152
1377664383,1558.582420574667,11703.998152
1377664683,1139.1891534613335,11703.998152
1377664983,1164.5478161239998,11703.998152
1377665283,1821.9223789946668,11703.998152
1377665583,2059.903674752,11703.998152
1377665883,2881.134211750666,11703.998152
1377666183,2787.502226534667,11703.998152
1377666483,2260.8223096946667,11703.998152
1377666783,2102.818334642667,11703.998152
1377667083,2504.655604528,11703.998152
1377667383,1853.1330407333328,11703.998152
1377667683,1792.6623836146669,11703.998152
1377667983,1942.8636932320003,11703.998152
1377668283,2409.0729529533337,11703.998152
1377668583,3185.4381637026668,11703.998152
1377668883,3290.774147070666,11703.998152
1377669183,3881.826053746666,11703.998152
1377669483,3991.063369832,11703.998152
1377669783,3967.655373528,11703.998152
1377670083,3969.6060398866666,11703.998152
1377670383,3405.8634622320005,11703.998152
1377670683,2565.1262616466665,11703.998152
1377670983,3140.5728374533337,11703.998152
1377671283,2892.838209902666,11703.998152
1377671583,1794.613049973333,11703.998152
1377671883,1332.3051229693333,11703.998152
1377672183,1492.2597643800002,11703.998152
1377672483,1644.411740356,11703.998152
1377672783,1197.7091442213334,11703.998152
1377673083,1269.883799492,11703.998152
1377673383,1324.5024575346667,11703.998152
1377673683,1498.1117634560003,11703.998152
1377673983,1503.963762532,11703.998152
1377674283,1550.77975514,11703.998152
1377674583,1702.9317311160005,11703.998152
1377674883,1907.751698776,11703.998152
1377675183,1576.1384178026667,11703.998152
1377675483,1067.0144981906667,11703.998152
1377675783,1152.843817972,11703.998152
1377676083,1287.43979672,11703.998152
1377676383,1699.0303983986669,11703.998152
1377676684,1714.635729268,11703.998152
1377676984,2024.791680296,11703.998152
1377677284,1484.4570989453332,11703.998152
1377677584,1096.274493570667,11703.998152
1377677884,1029.951837376,11703.998152
1377678184,1053.35983368,11703.998152
1377678484,1041.655835528,11703.998152
1377678784,1068.9651645493332,11703.998152
1377679084,1028.0011710173335,11703.998152
1377679384,1055.3105000386663,11703.998152
1377679684,1067.0144981906667,11703.998152
1377679984,1055.3105000386663,11703.998152
1377680284,1067.0144981906667,11703.998152
1377680584,1215.2651414493332,11703.998152
1377680884,1080.669162701333,11703.998152
1377681184,1109.9291580813335,11703.998152
1377681484,830.983868792,11703.998152
1377681784,2297.884970509333,11703.998152
1377682084,2307.638302302667,11703.998152
1377682384,1827.774378070667,11703.998152
1377682684,1763.402388234667,11703.998152
1377682984,2036.495678448,11703.998152
1377683284,2231.5623143146668,11703.998152
1377683884,2102.818334642667,11703.998152
1377684184,2178.894322630667,11703.998152
1377684484,2198.400986217333,11703.998152
1377684784,2157.4369926853333,11703.998152
1377685084,910.9611894973334,11703.998152
1377685384,866.0958632480001,11703.998152
1377685684,864.1451968893334,11703.998152
1377685984,2036.495678448,11703.998152
1377686284,1164.5478161239998,11703.998152
1377686584,1074.8171636253333,11703.998152
1377686884,1033.8531700933336,11703.998152
1377687184,1135.287820744,11703.998152
1377687484,1137.2384871026668,11703.998152
1377687784,1353.7624529146667,11703.998152
1377688084,1400.5784455226667,11703.998152
1377688384,1505.9144288906668,11703.998152
1377688684,1470.802434434667,11703.998152
1377688984,1544.9277560639998,11703.998152
1377689284,386.231939016,11703.998152
1377689584,388.18260537466665,11703.998152
1377689884,370.6266081466667,11703.998152
1377690184,413.5412680373333,11703.998152
1377690484,360.87327635333327,11703.998152
1377690784,345.267945484,11703.998152
1377691084,413.5412680373333,11703.998152
1377691384,425.2452661893333,11703.998152
1377691684,327.711948256,11703.998152
1377691984,339.415946408,11703.998152
1377692284,526.67991684,11703.998152
1377692584,598.8545721106667,11703.998152
1377692884,366.72527542933335,11703.998152
1377693184,368.675941788,11703.998152
1377693484,499.3705878186667,11703.998152
1377693784,395.9852708093333,11703.998152
1377694084,485.7159233080001,11703.998152
1377694384,345.267945484,11703.998152
1377694684,351.11994456,11703.998152
1377694984,499.3705878186667,11703.998152
1377695284,353.0706109186667,11703.998152
1377695584,368.675941788,11703.998152
1377695884,444.751929776,11703.998152
1377696184,542.2852477093332,11703.998152
1377696484,429.14659890666667,11703.998152
1377696785,407.6892689613333,11703.998152
1377697085,436.9492643413333,11703.998152
1377697385,392.083938092,11703.998152
1377697685,394.0346044506667,11703.998152
1377697985,440.85059705866666,11703.998152
1377698285,362.823942712,11703.998152
1377698585,702.23988912,11703.998152
1377698885,563.7425776546667,11703.998152
1377699185,317.95861646266667,11703.998152
1377699485,347.21861184266663,11703.998152
1377699785,294.5506201586667,11703.998152
1377700085,360.87327635333327,11703.998152
1377700385,676.8812264573334,11703.998152
1377700685,382.3306062986667,11703.998152
1377700985,356.971943636,11703.998152
1377701285,345.267945484,11703.998152
1377701585,879.7505277586667,11703.998152
1377701885,996.7905092786666,11703.998152
1377702185,2132.0783300226667,11703.998152
1377702485,2093.0650028493333,11703.998152
1377702785,353.0706109186667,11703.998152
1377703085,356.971943636,11703.998152
1377703385,341.3666127666667,11703.998152
1377703685,349.16927820133327,11703.998152
1377703985,1016.2971728653334,11703.998152
1377704285,2381.763623932,11703.998152
1377704585,2448.0862801266667,11703.998152
1377704885,1445.443771772,11703.998152
1377705185,1624.9050767693334,11703.998152
1377705485,366.72527542933335,11703.998152
1377705785,909.0105231386666,11703.998152
1377706085,1264.031800416,11703.998152
1377706385,1279.6371312853332,11703.998152
1377706685,2508.5569372453333,11703.998152
1377706986,1242.5744704706667,11703.998152
1377707286,390.1332717333333,11703.998152
1377707586,809.5265388466667,11703.998152
1377707886,503.271920536,11703.998152
1377708186,347.21861184266663,11703.998152
1377708486,314.0572837453333,11703.998152
1377708786,327.711948256,11703.998152
1377709086,321.85994918,11703.998152
1377709386,1076.767829984,11703.998152
1377709686,2465.642277354667,11703.998152
1377709986,1297.1931285133332,11703.998152
1377710286,343.3172791253333,11703.998152
1377710586,349.16927820133327,11703.998152
1377710886,349.16927820133327,11703.998152
1377711186,1517.6184270426666,11703.998152
1377711486,3846.714059290666,11703.998152
1377711786,1002.6425083546668,11703.998152
1377712086,778.315877108,11703.998152
1377712386,791.9705416186666,11703.998152
1377712686,758.8092135213333,11703.998152
1377712986,1671.7210693773334,11703.998152
1377713286,4014.471366136,11703.998152
1377713586,1671.7210693773334,11703.998152
1377713886,998.7411756373334,11703.998152
1377714186,1127.485155309333,11703.998152
1377714486,1899.9490333413328,11703.998152
1377714786,2732.8835684920004,11703.998152
1377715086,2537.8169326253333,11703.998152
1377715386,2805.0582237626663,11703.998152
1377715686,2982.5688624013337,11703.998152
1377715987,2686.067575884,11703.998152
1377716287,2161.3383254026667,11703.998152
1377716587,2723.1302366986665,11703.998152
1377716887,1732.1917264960002,11703.998152
1377717187,1792.6623836146669,11703.998152
1377717487,1833.626377146667,11703.998152
1377717787,2063.8050074693333,11703.998152
1377718087,2214.006317086667,11703.998152
1377718387,2996.2235269120006,11703.998152
1377718687,2920.147538924,11703.998152
1377718987,2083.3116710560003,11703.998152
1377719286,2024.791680296,11703.998152
1377719586,1929.2090287213337,11703.998152
1377719886,2286.1809723573333,11703.998152
1377720186,2686.067575884,11703.998152
1377720486,2044.298343882667,11703.998152
1377720786,1624.9050767693334,11703.998152
1377721086,1260.1304676986667,11703.998152
1377721386,1595.6450813893334,11703.998152
1377721686,1656.1157385079998,11703.998152
1377721986,2920.147538924,11703.998152
1377722286,2044.298343882667,11703.998152
1377722586,2730.9329021333338,11703.998152
1377722886,2018.93968122,11703.998152
1377723186,1628.806409486667,11703.998152
1377723486,1585.891749596,11703.998152
1377723787,1888.2450351893333,11703.998152
1377724087,1088.471828136,11703.998152
1377724387,594.9532393933333,11703.998152
1377724687,1221.1171405253333,11703.998152
1377724987,1344.0091211213332,11703.998152
1377725287,987.0371774853334,11703.998152
1377725587,1652.214405790667,11703.998152
1377725887,1462.999769,11703.998152
1377726187,975.3331793333334,11703.998152
1377726487,1246.475803188,11703.998152
1377726787,1383.022448294667,11703.998152
1377727087,965.57984754,11703.998152
1377727387,2163.288991761334,11703.998152
1377727687,1829.725044429333,11703.998152
1377727987,1544.9277560639998,11703.998152
1377728287,1291.3411294373334,11703.998152
1377728587,1293.291795796,11703.998152
1377728887,1892.146367906667,11703.998152
1377729187,2383.7142902906667,11703.998152
1377729487,1944.8143595906668,11703.998152
1377729787,2132.0783300226667,11703.998152
1377730087,1882.393036113333,11703.998152
1377730387,1919.455696928,11703.998152
1377730687,1952.6170250253333,11703.998152
1377730987,3380.504799569333,11703.998152
1377731288,3801.8487330413336,11703.998152
1377731588,3281.020815277333,11703.998152
1377731888,3323.935475168,11703.998152
1377732188,3875.974054670666,11703.998152
1377732488,3238.1061553866666,11703.998152
1377732788,1435.6904399786667,11703.998152
1377733088,1133.3371543853334,11703.998152
1377733388,1131.3864880266667,11703.998152
1377733688,930.467853084,11703.998152
1377733988,1102.1264926466663,11703.998152
1377734288,1146.991818896,11703.998152
1377734588,1911.6530314933327,11703.998152
1377734888,2481.247608224,11703.998152
1377735188,856.3425314546666,11703.998152
1377735488,1018.247839224,11703.998152
1377735788,756.8585471626667,11703.998152
1377736088,711.9932209133334,11703.998152
1377736388,696.3878900440001,11703.998152
1377736688,988.9878438439998,11703.998152
1377736988,1390.8251137293337,11703.998152
1377737288,910.9611894973334,11703.998152
1377737588,846.5891996613334,11703.998152
1377737888,926.5665203666666,11703.998152
1377738188,1505.9144288906668,11703.998152
1377738489,873.8985286826667,11703.998152
1377738789,1111.87982444,11703.998152
1377739089,1310.847793024,11703.998152
1377739389,1061.1624991146666,11703.998152
1377739689,1115.7811571573334,11703.998152
1377739989,1242.5744704706667,11703.998152
1377740289,1061.1624991146666,11703.998152
1377740589,1063.1131654733333,11703.998152
1377740889,1570.2864187266669,11703.998152
1377741189,1771.2050536693332,11703.998152
1377741489,928.5171867253332,11703.998152
1377741789,1433.73977362,11703.998152
1377742089,1601.497080465333,11703.998152
1377742389,1330.3544566106668,11703.998152
1377742689,1310.847793024,11703.998152
1377742989,1792.6623836146669,11703.998152
1377743289,1156.7451506893333,11703.998152
1377743589,1094.323827212,11703.998152
1377743889,1322.551791176,11703.998152
1377744189,711.9932209133334,11703.998152
1377744489,676.8812264573334,11703.998152
1377744789,596.903905752,11703.998152
1377745089,633.9665665666666,11703.998152
1377745389,967.5305138986664,11703.998152
1377745689,862.1945305306667,11703.998152
1377745989,1437.6411063373334,11703.998152
1377746289,1096.274493570667,11703.998152
1377746589,1203.5611432973333,11703.998152
1377746889,1137.2384871026668,11703.998152
1377747189,1812.169047201333,11703.998152
1377747489,1381.071781936,11703.998152
1377747789,2026.7423466546668,11703.998152
1377748089,717.8452199893334,11703.998152
1377748389,967.5305138986664,11703.998152
1377748690,1047.507834604,11703.998152
1377748990,1008.4945074306668,11703.998152
1377749290,829.0332024333334,11703.998152
1377749590,721.7465527066665,11703.998152
1377749890,1281.587797644,11703.998152
1377750190,807.5758724880001,11703.998152
1377750490,901.207857704,11703.998152
1377750790,1004.5931747133334,11703.998152
1377751090,1113.8304907986667,11703.998152
1377751390,1816.0703799186667,11703.998152
1377751690,1964.321023177333,11703.998152
1377751990,2206.203651652,11703.998152
1377752289,2247.167645184,11703.998152
1377752589,2089.1636701320003,11703.998152
1377752889,2892.838209902666,11703.998152
1377753189,3029.384855009333,11703.998152
1377753489,2524.162268114667,11703.998152
1377753789,2424.6782838226663,11703.998152
1377754089,2570.9782607226666,11703.998152
1377754389,2210.104984369333,11703.998152
1377754689,2818.7128882733336,11703.998152
1377754989,2446.1356137679995,11703.998152
1377755289,2988.420861477334,11703.998152
1377755590,3195.191495496,11703.998152
1377755890,2961.111532456,11703.998152
1377756190,3000.124859629334,11703.998152
1377756490,3002.075525988,11703.998152
1377756790,3368.8008014173333,11703.998152
1377757090,2980.6181960426666,11703.998152
1377757390,1991.6303521986667,11703.998152
1377757690,1812.169047201333,11703.998152
1377757990,1940.913026873333,11703.998152
1377758290,2438.3329483333337,11703.998152
1377758590,2243.266312466667,11703.998152
1377758890,2303.7369695853336,11703.998152
1377759190,2239.364979749333,11703.998152
1377759490,2161.3383254026667,11703.998152
1377759790,2137.9303290986663,11703.998152
1377760090,2034.545012089333,11703.998152
1377760390,1886.2943688306664,11703.998152
1377760690,1186.0051460693333,11703.998152
1377760990,1240.623804112,11703.998152
1377761290,1297.1931285133332,11703.998152
1377761590,1131.3864880266667,11703.998152
1377761890,1080.669162701333,11703.998152
1377762190,1117.731823516,11703.998152
1377762490,1191.857145145333,11703.998152
1377762790,1197.7091442213334,11703.998152
1377763090,1359.6144519906668,11703.998152
1377763390,1862.886372526667,11703.998152
1377763690,1459.0984362826669,11703.998152
1377763990,1658.0664048666667,11703.998152
1377764290,1780.958385462667,11703.998152
1377764590,1439.591772696,11703.998152
1377764890,1123.583822592,11703.998152
1377765191,1088.471828136,11703.998152
1377765491,1605.398413182667,11703.998152
1377765791,1839.4783762226664,11703.998152
1377766091,1665.8690703013333,11703.998152
1377766391,951.9251830293332,11703.998152
1377766691,912.911855856,11703.998152
1377766991,916.8131885733336,11703.998152
1377767291,891.4545259106666,11703.998152
1377767591,901.207857704,11703.998152
1377767891,1215.2651414493332,11703.998152
1377768191,2742.636900285333,11703.998152
1377768491,3046.9408522373333,11703.998152
1377768791,928.5171867253332,11703.998152
1377769091,1195.7584778626667,11703.998152
1377769391,2174.992989913333,11703.998152
1377769691,2455.888945561333,11703.998152
1377769991,2206.203651652,11703.998152
1377770291,2206.203651652,11703.998152
1377770591,2307.638302302667,11703.998152
1377770891,2120.3743318706665,11703.998152
1377771191,2397.368954801333,11703.998152
1377771491,2344.700963117333,11703.998152
1377771791,1455.1971035653332,11703.998152
1377772091,1012.395840148,11703.998152
1377772391,1145.0411525373331,11703.998152
1377772691,1412.2824436746669,11703.998152
1377772991,1414.233110033333,11703.998152
1377773291,1357.663785632,11703.998152
1377773891,1583.9410832373333,11703.998152
1377774191,1433.73977362,11703.998152
1377774491,1418.1344427506667,11703.998152
1377774791,1381.071781936,11703.998152
1377775091,850.4905323786667,11703.998152
1377775391,349.16927820133327,11703.998152
1377775691,395.9852708093333,11703.998152
1377775991,351.11994456,11703.998152
1377776291,335.5146136906667,11703.998152
1377776591,403.787936244,11703.998152
1377776892,321.85994918,11703.998152
1377777192,382.3306062986667,11703.998152
1377777492,378.42927358133335,11703.998152
1377777792,372.5772745053333,11703.998152
1377778092,341.3666127666667,11703.998152
1377778392,331.6132809733333,11703.998152
1377778692,520.8279177640001,11703.998152
1377778992,1252.327802264,11703.998152
1377779292,345.267945484,11703.998152
1377779592,368.675941788,11703.998152
1377779892,384.2812726573333,11703.998152
1377780192,374.5279408640001,11703.998152
1377780492,392.083938092,11703.998152
1377780792,341.3666127666667,11703.998152
1377781092,401.8372698853333,11703.998152
1377781392,353.0706109186667,11703.998152
1377781692,349.16927820133327,11703.998152
1377781992,388.18260537466665,11703.998152
1377782292,413.5412680373333,11703.998152
1377782592,446.7025961346667,11703.998152
1377782892,503.271920536,11703.998152
1377783192,353.0706109186667,11703.998152
1377783492,370.6266081466667,11703.998152
1377783792,374.5279408640001,11703.998152
1377784092,399.8866035266667,11703.998152
1377784392,1148.9424852546667,11703.998152
1377784692,2824.5648873493337,11703.998152
1377784992,1915.5543642106668,11703.998152
1377785292,2141.831661816,11703.998152
1377785591,2393.467622084,11703.998152
1377785891,2223.75964888,11703.998152
1377786192,438.8999307,11703.998152
1377786492,325.76128189733333,11703.998152
1377786792,834.8852015093335,11703.998152
1377787092,651.5225637946667,11703.998152
1377787392,575.4465758066667,11703.998152
1377787692,643.71989836,11703.998152
1377787992,333.563947332,11703.998152
1377788292,1771.2050536693332,11703.998152
1377788592,1172.3504815586666,11703.998152
1377788892,3002.075525988,11703.998152
1377789192,415.491934396,11703.998152
1377789492,378.42927358133335,11703.998152
1377789792,345.267945484,11703.998152
1377790092,384.2812726573333,11703.998152
1377790392,977.283845692,11703.998152
1377790692,815.3785379226666,11703.998152
1377790992,364.7746090706667,11703.998152
1377791292,378.42927358133335,11703.998152
1377791592,353.0706109186667,11703.998152
1377791892,302.35328559333334,11703.998152
1377792192,920.7145212906668,11703.998152
1377792492,458.4065942866668,11703.998152
1377792792,349.16927820133327,11703.998152
1377793092,378.42927358133335,11703.998152
1377793392,335.5146136906667,11703.998152
1377793692,288.6986210826667,11703.998152
1377793992,780.2665434666666,11703.998152
1377794292,454.5052615693333,11703.998152
1377794592,331.6132809733333,11703.998152
1377794892,429.14659890666667,11703.998152
1377795192,317.95861646266667,11703.998152
1377795492,327.711948256,11703.998152
1377795793,1065.063831832,11703.998152
1377796093,2301.786303226667,11703.998152
1377796393,2040.3970111653327,11703.998152
1377796693,1876.541037037333,11703.998152
1377796993,1903.8503660586664,11703.998152
1377797293,1796.563716332,11703.998152
1377797593,2650.955581428,11703.998152
1377797893,3626.288760761333,11703.998152
1377798193,2619.744919689334,11703.998152
1377798493,2093.0650028493333,11703.998152
1377798793,2100.867668284,11703.998152
1377799093,1946.7650259493328,11703.998152
1377799393,2067.706340186667,11703.998152
1377799693,2098.9170019253334,11703.998152
1377799993,2520.260935397333,11703.998152
1377800293,2570.9782607226666,11703.998152
1377800593,2096.966335566667,11703.998152
1377800893,3536.5581082626663,11703.998152
1377801193,4882.517895742667,11703.998152
1377801493,4141.264679449333,11703.998152
1377801793,4051.534026950667,11703.998152
1377802093,3653.598089782666,11703.998152
1377802393,3595.0780990226667,11703.998152
1377802693,4102.251352276,11703.998152
1377802993,3612.634096250666,11703.998152
1377803293,2038.446344806667,11703.998152
1377803593,2368.1089594213336,11703.998152
1377803893,3136.6715047360003,11703.998152
1377804194,3165.931500116,11703.998152
1377804494,3429.271458536,11703.998152
1377804794,3737.4767432053336,11703.998152
1377805094,3261.5141516906665,11703.998152
1377805394,2169.140990837333,11703.998152
1377805694,1976.0250213293327,11703.998152
1377805994,1970.173022253333,11703.998152
1377806294,2377.8622912146666,11703.998152
1377806594,3671.1540870106655,11703.998152
1377806894,3622.387428044,11703.998152
1377807194,2570.9782607226666,11703.998152
1377807494,2354.4542949106667,11703.998152
1377807794,2132.0783300226667,11703.998152
1377808094,2052.101009317333,11703.998152
1377808394,2526.1129344733336,11703.998152
1377808694,3284.9221479946664,11703.998152
1377808994,2487.0996073,11703.998152
1377809294,2455.888945561333,11703.998152
1377809594,2608.040921537334,11703.998152
1377809894,3009.8781914226665,11703.998152
1377810194,2986.4701951186667,11703.998152
1377810494,1835.5770435053328,11703.998152
1377810794,1371.3184501426667,11703.998152
1377811094,1039.7051691693332,11703.998152
1377811394,1209.4131423733334,11703.998152
1377811694,1072.8664972666666,11703.998152
1377811994,2206.203651652,11703.998152
1377812294,1310.847793024,11703.998152
1377812594,1474.703767152,11703.998152
1377812894,858.2931978133333,11703.998152
1377813194,784.1678761840001,11703.998152
1377813494,790.0198752599999,11703.998152
1377813794,1901.8996997,11703.998152
1377814094,1541.026423346667,11703.998152
1377814395,1457.147769924,11703.998152
1377814695,1599.5464141066668,11703.998152
1377814995,2020.8903475786667,11703.998152
1377815295,2227.6609815973334,11703.998152
1377815595,2998.1741932706664,11703.998152
1377815895,2959.1608660973334,11703.998152
1377816195,2686.067575884,11703.998152
1377816495,1704.882397474667,11703.998152
1377816795,3199.0928282133336,11703.998152
1377817095,3286.872814353333,11703.998152
1377817395,4137.3633467320005,11703.998152
1377817694,2929.900870717334,11703.998152
1377817994,3216.648825441333,11703.998152
1377818294,3680.907418804,11703.998152
1377818594,4416.308636021334,11703.998152
1377818894,3684.808751521333,11703.998152
1377819194,3002.075525988,11703.998152
1377819494,2561.2249289293336,11703.998152
1377819794,1712.6850629093333,11703.998152
1377820094,1420.0851091093334,11703.998152
1377820394,1652.214405790667,11703.998152
1377820694,1593.694415030667,11703.998152
1377820994,2629.498251482666,11703.998152
1377821294,3998.8660352666666,11703.998152
1377821594,3013.77952414,11703.998152
1377821894,1697.0797320400002,11703.998152
1377822194,1691.227732964,11703.998152
1377822494,1248.4264695466668,11703.998152
1377822794,1207.462476014667,11703.998152
1377823094,1847.2810416573327,11703.998152
1377823394,1092.3731608533335,11703.998152
1377823694,916.8131885733336,11703.998152
1377823994,965.57984754,11703.998152
1377824294,1297.1931285133332,11703.998152
1377824595,1818.0210462773327,11703.998152
1377824895,1238.673137753333,11703.998152
1377825195,1580.03975052,11703.998152
1377825495,1396.677112805333,11703.998152
1377825795,1365.4664510666669,11703.998152
1377826095,1230.8704723186668,11703.998152
1377826395,1513.7170943253334,11703.998152
1377826695,1383.022448294667,11703.998152
1377826995,1390.8251137293337,11703.998152
1377827295,1517.6184270426666,11703.998152
1377827595,1527.3717588360005,11703.998152
1377827895,2050.1503429586664,11703.998152
1377828195,2317.391634096,11703.998152
1377828495,1851.1823743746668,11703.998152
1377828795,2024.791680296,11703.998152
1377829095,1451.2957708479998,11703.998152
1377829395,1847.2810416573327,11703.998152
1377829695,1318.650458458667,11703.998152
1377829995,1334.255789328,11703.998152
1377830295,1344.0091211213332,11703.998152
1377830595,2364.207626704,11703.998152
1377830895,1053.35983368,11703.998152
1377831195,1006.543841072,11703.998152
1377831495,1141.13981982,11703.998152
1377831795,1429.838440902667,11703.998152
1377832095,1211.363808732,11703.998152
1377832395,1369.3677837839998,11703.998152
1377832695,1548.8290887813332,11703.998152
1377832995,1654.1650721493334,11703.998152
1377833295,1636.609074921333,11703.998152
1377833595,2412.974285670666,11703.998152
1377833895,2081.361004697333,11703.998152
1377834195,998.7411756373334,11703.998152
1377834495,1299.143794872,11703.998152
1377834795,996.7905092786666,11703.998152
1377835095,834.8852015093335,11703.998152
1377835395,1182.103813352,11703.998152
1377835695,1667.81973666,11703.998152
1377835996,3294.675479788,11703.998152
1377836296,4246.600662817334,11703.998152
1377836596,3924.740713637333,11703.998152
1377836896,2955.25953338,11703.998152
1377837196,2750.43956572,11703.998152
1377837496,3390.2581313626665,11703.998152
1377837796,3478.0381175026664,11703.998152
1377838096,3017.6808568573338,11703.998152
1377838396,3171.783499192,11703.998152
1377838696,3339.540806037334,11703.998152
1377838996,3394.1594640800004,11703.998152
1377839296,3499.495447448,11703.998152
1377839596,3464.3834529920005,11703.998152
1377839896,3454.6301211986665,11703.998152
1377840196,3351.244804189334,11703.998152
1377840496,3341.491472396,11703.998152
1377840796,3378.5541332106664,11703.998152
1377841096,3140.5728374533337,11703.998152
1377841396,2572.9289270813333,11703.998152
1377841696,2473.4449427893337,11703.998152
1377841996,2362.256960345333,11703.998152
1377842296,3015.7301904986666,11703.998152
1377842596,2623.646252406666,11703.998152
1377842896,2922.098205282666,11703.998152
1377843196,3175.6848319093338,11703.998152
1377843496,3068.3981821826665,11703.998152
1377843796,2658.7582468626665,11703.998152
1377844096,2592.435590668,11703.998152
1377844396,2276.427640564,11703.998152
1377844696,2059.903674752,11703.998152
1377844997,2061.854341110667,11703.998152
1377845297,1968.2223558946664,11703.998152
1377845597,1905.801032417333,11703.998152
1377845897,1474.703767152,11703.998152
1377846197,2444.1849474093337,11703.998152
1377846497,2514.4089363213334,11703.998152
1377846797,2619.744919689334,11703.998152
1377847097,2652.20958123,11703.998152
1377847397,3294.675479788,11703.998152
1377847697,4131.929347589999,11703.998152
1377847997,3355.146136906666,11703.998152
1377848297,4096.3993532,11703.998152
1377848597,4758.9292485900005,11703.998152
1377848897,4991.755211828,11703.998152
1377849197,5218.032509433333,11703.998152
1377849497,4938.66922021,11703.998152
1377849797,3895.480718257333,11703.998152
1377850097,4082.744688689333,11703.998152
1377850397,3916.938048202667,11703.998152
1377850696,3478.0381175026664,11703.998152
1377850996,4131.929347589999,11703.998152
1377851296,4111.02935089,11703.998152
1377851596,3351.244804189334,11703.998152
1377851896,3425.50945913,11703.998152
1377852196,3120.36950731,11703.998152
1377852496,3590.61943306,11703.998152
1377852796,1676.17973534,11703.998152
1377853096,1266.53980002,11703.998152
1377853396,1560.5330869333332,11703.998152
1377853696,1478.6050998693331,11703.998152
1377853996,513.0252523293333,11703.998152
1377854297,327.711948256,11703.998152
1377854597,2389.5662893666668,11703.998152
1377854897,2520.260935397333,11703.998152
1377855197,1968.77968914,11703.998152
1377855497,2217.907649804,11703.998152
1377855797,2426.628950181333,11703.998152
1377856097,1997.4823512746668,11703.998152
1377856397,856.3425314546666,11703.998152
1377856697,803.6745397706666,11703.998152
1377856997,836.835867868,11703.998152
1377857297,778.315877108,11703.998152
1377857597,840.7372005853333,11703.998152
1377857897,817.3292042813333,11703.998152
1377858197,854.391865096,11703.998152
1377858497,1008.4945074306668,11703.998152
1377858797,1119.6824898746663,11703.998152
1377859097,1098.2251599293334,11703.998152
1377859397,1063.1131654733333,11703.998152
1377859697,1119.6824898746663,11703.998152
1377859997,1160.646483406667,11703.998152
1377860297,1152.843817972,11703.998152
1377860597,1176.251814276,11703.998152
1377860897,1045.5571682453333,11703.998152
1377861197,979.2345120506668,11703.998152
1377861497,909.0105231386666,11703.998152
1377861797,928.5171867253332,11703.998152
1377862097,969.4811802573332,11703.998152
1377862397,827.0825360746667,11703.998152
1377862698,310.155951028,11703.998152
1377862998,294.5506201586667,11703.998152
1377863298,351.11994456,11703.998152
1377863598,317.95861646266667,11703.998152
1377863898,331.6132809733333,11703.998152
1377864198,394.0346044506667,11703.998152
1377864498,353.0706109186667,11703.998152
1377864798,343.3172791253333,11703.998152
1377865098,711.9932209133334,11703.998152
1377865398,1033.8531700933336,11703.998152
1377865698,312.1066173866667,11703.998152
1377865998,308.20528466933337,11703.998152
1377866298,304.30395195200003,11703.998152
1377866598,345.267945484,11703.998152
1377866898,323.8106155386667,11703.998152
1377867198,364.7746090706667,11703.998152
1377867498,384.2812726573333,11703.998152
1377867798,411.5906016786667,11703.998152
1377868098,355.0212772773333,11703.998152
1377868398,325.76128189733333,11703.998152
1377868698,388.18260537466665,11703.998152
1377868998,548.1372467853333,11703.998152
1377869298,448.6532624933333,11703.998152
1377869598,364.7746090706667,11703.998152
1377869898,390.1332717333333,11703.998152
1377870198,333.563947332,11703.998152
1377870498,351.11994456,11703.998152
1377870798,355.0212772773333,11703.998152
1377871098,349.16927820133327,11703.998152
1377871398,873.8985286826667,11703.998152
1377871698,341.3666127666667,11703.998152
1377871998,314.0572837453333,11703.998152
1377872299,356.971943636,11703.998152
1377872599,306.2546183106667,11703.998152
1377872899,356.971943636,11703.998152
1377873199,587.1505739586667,11703.998152
1377873499,347.21861184266663,11703.998152
1377873799,292.5999538,11703.998152
1377874099,362.823942712,11703.998152
1377874399,286.747954724,11703.998152
1377874699,1494.210430738667,11703.998152
1377874999,1388.8744473706663,11703.998152
1377875299,4923.481889274667,11703.998152
1377875599,3606.782097174667,11703.998152
1377875899,3162.0301673986664,11703.998152
1377876199,2011.1370157853328,11703.998152
1377876499,310.155951028,11703.998152
1377876799,1304.995793948,11703.998152
1377877099,431.09726526533336,11703.998152
1377877399,374.5279408640001,11703.998152
1377877699,362.823942712,11703.998152
1377877999,294.5506201586667,11703.998152
1377878299,333.563947332,11703.998152
1377878599,1000.691841996,11703.998152
1377878899,380.37993994,11703.998152
1377879199,310.155951028,11703.998152
1377879499,319.9092828213333,11703.998152
1377879799,308.20528466933337,11703.998152
1377880100,356.971943636,11703.998152
1377880400,786.1185425426665,11703.998152
1377880700,356.971943636,11703.998152
1377881000,257.487959344,11703.998152
1377881300,353.0706109186667,11703.998152
1377881600,271.1426238546666,11703.998152
1377881900,284.7972883653334,11703.998152
1377882200,1615.151744976,11703.998152
1377882500,1599.5464141066668,11703.998152
1377882800,325.76128189733333,11703.998152
1377883100,306.2546183106667,11703.998152
1377883399,329.66261461466667,11703.998152
1377883699,331.6132809733333,11703.998152
1377883999,1981.8770204053333,11703.998152
1377884299,2020.8903475786667,11703.998152
1377884599,1072.8664972666666,11703.998152
1377884899,887.5531931933334,11703.998152
1377885199,817.3292042813333,11703.998152
1377885499,760.7598798800001,11703.998152
1377885799,1935.061027797333,11703.998152
1377886100,3815.503397552,11703.998152
1377886400,1954.567691384,11703.998152
1377886700,1933.1103614386664,11703.998152
1377887000,2098.9170019253334,11703.998152
1377887300,4693.303258952,11703.998152
1377887600,4392.900639717333,11703.998152
1377887900,3351.244804189334,11703.998152
1377888200,4108.103351352,11703.998152
1377888500,2728.9822357746666,11703.998152
1377888800,1968.2223558946664,11703.998152
1377889100,1950.6663586666668,11703.998152
1377889400,1915.5543642106668,11703.998152
1377889700,987.0371774853334,11703.998152
1377890000,916.8131885733336,11703.998152
1377890300,1554.6810878573335,11703.998152
1377890600,1644.411740356,11703.998152
1377890900,1673.671735736,11703.998152
1377891200,1601.497080465333,11703.998152
1377891500,1663.9184039426668,11703.998152
1377891800,1209.4131423733334,11703.998152
1377892100,1184.0544797106668,11703.998152
1377892400,1304.995793948,11703.998152
1377892700,1420.0851091093334,11703.998152
1377893000,3004.0261923466664,11703.998152
1377893300,2500.754271810666,11703.998152
1377893600,2161.3383254026667,11703.998152
1377893900,1449.3451044893332,11703.998152
1377894200,1065.063831832,11703.998152
1377894500,1410.3317773160002,11703.998152
1377894800,1864.8370388853327,11703.998152
1377895100,1468.851768076,11703.998152
1377895400,1258.17980134,11703.998152
1377895700,1464.950435358667,11703.998152
1377896000,1002.6425083546668,11703.998152
1377896300,992.8891765613334,11703.998152
1377896600,1642.4610739973332,11703.998152
1377896901,1258.17980134,11703.998152
1377897201,635.9172329253333,11703.998152
1377897501,905.1091904213332,11703.998152
1377897801,934.3691858013334,11703.998152
1377898101,770.5132116733334,11703.998152
1377898401,1578.0890841613332,11703.998152
1377898701,1318.650458458667,11703.998152
1377899001,1035.803836452,11703.998152
1377899301,1199.65981058,11703.998152
1377899601,1197.7091442213334,11703.998152
1377899901,879.7505277586667,11703.998152
