Timestamp [ms],CPU usage [MHZ],CPU capacity provisioned [MHZ]
1379187023,1788.7610508973337,11703.998152
1379187323,2635.350250558666,11703.998152
1379187623,1777.057052745333,11703.998152
1379187923,2056.002342034667,11703.998152
1379188223,2492.951606376,11703.998152
1379188523,1552.7304214986666,11703.998152
1379188823,1287.43979672,11703.998152
1379189123,2485.1489409413334,11703.998152
1379189423,1152.843817972,11703.998152
1379189723,1191.857145145333,11703.998152
1379190023,1621.003744052,11703.998152
1379190323,1441.5424390546668,11703.998152
1379190623,1462.999769,11703.998152
1379190923,1788.7610508973337,11703.998152
1379191223,2046.2490102413333,11703.998152
1379191524,1193.807811504,11703.998152
1379191824,1119.6824898746663,11703.998152
1379192124,1533.223757912,11703.998152
1379192424,1414.233110033333,11703.998152
1379192724,1860.9357061680005,11703.998152
1379193024,1782.9090518213332,11703.998152
1379193324,2303.7369695853336,11703.998152
1379193624,1529.3224251946667,11703.998152
1379193924,1626.855743128,11703.998152
1379194224,1630.7570758453332,11703.998152
1379194524,3394.1594640800004,11703.998152
1379194824,1660.0170712253332,11703.998152
1379195124,1408.3811109573332,11703.998152
1379195424,1345.95978748,11703.998152
1379195723,1658.0664048666667,11703.998152
1379196024,1589.7930823133331,11703.998152
1379196324,1921.4063632866664,11703.998152
1379196624,1392.775780088,11703.998152
1379196924,1326.4531238933332,11703.998152
1379197224,1154.7944843306668,11703.998152
1379197524,1476.6544335106666,11703.998152
1379197824,1314.749125741333,11703.998152
1379198124,1691.227732964,11703.998152
1379198424,1404.47977824,11703.998152
1379198724,1642.4610739973332,11703.998152
1379199024,1952.6170250253333,11703.998152
1379199324,1656.1157385079998,11703.998152
1379199624,1638.55974128,11703.998152
1379199924,2422.727617464,11703.998152
1379200224,1201.6104769386668,11703.998152
1379200524,1722.4383947026663,11703.998152
1379200824,1663.9184039426668,11703.998152
1379201124,1599.5464141066668,11703.998152
1379201424,1505.9144288906668,11703.998152
1379201724,1667.81973666,11703.998152
1379202024,1267.9331331333333,11703.998152
1379202324,1271.834465850667,11703.998152
1379202624,1123.583822592,11703.998152
1379202924,1020.1985055826668,11703.998152
1379203224,1328.403790252,11703.998152
1379203524,3462.4327866333338,11703.998152
1379203824,1379.1211155773333,11703.998152
1379204124,1006.543841072,11703.998152
1379204424,856.3425314546666,11703.998152
1379204724,710.0425545546667,11703.998152
1379205024,713.943887272,11703.998152
1379205324,731.4998845,11703.998152
1379205624,725.6478854239999,11703.998152
1379205924,805.6252061293334,11703.998152
1379206224,877.7998613999999,11703.998152
1379206524,1254.2784686226669,11703.998152
1379206824,1466.9011017173334,11703.998152
1379207124,1652.214405790667,11703.998152
1379207424,1416.1837763919998,11703.998152
1379207724,1509.815761608,11703.998152
1379208025,1162.5971497653334,11703.998152
1379208325,1394.726446446667,11703.998152
1379208625,1601.497080465333,11703.998152
1379208925,1814.11971356,11703.998152
1379209225,1578.0890841613332,11703.998152
1379209525,1632.707742204,11703.998152
1379209825,1607.3490795413331,11703.998152
1379210125,1609.2997459,11703.998152
1379210425,1414.233110033333,11703.998152
1379210725,1810.2183808426664,11703.998152
1379211025,1293.291795796,11703.998152
1379211325,1548.8290887813332,11703.998152
1379211625,1246.475803188,11703.998152
1379211925,1225.0184732426667,11703.998152
1379212225,1199.65981058,11703.998152
1379212525,1591.743748672,11703.998152
1379212825,1109.9291580813335,11703.998152
1379213125,1150.8931516133334,11703.998152
1379213425,1472.753100793333,11703.998152
1379213725,1156.7451506893333,11703.998152
1379214025,1170.3998152,11703.998152
1379214325,1462.999769,11703.998152
1379214625,1303.045127589333,11703.998152
1379214925,1281.587797644,11703.998152
1379215225,1203.5611432973333,11703.998152
1379215525,1219.1664741666668,11703.998152
1379215825,1336.206455686667,11703.998152
1379216125,1745.8463910066669,11703.998152
1379216425,1332.3051229693333,11703.998152
1379216725,1174.3011479173333,11703.998152
1379217025,1174.3011479173333,11703.998152
1379217325,1180.1531469933334,11703.998152
1379217625,1141.13981982,11703.998152
1379217925,1086.5211617773334,11703.998152
1379218225,1654.1650721493334,11703.998152
1379218525,1318.650458458667,11703.998152
1379218825,1402.5291118813332,11703.998152
1379219125,1205.5118096560002,11703.998152
1379219425,1357.663785632,11703.998152
1379219725,1498.1117634560003,11703.998152
1379220025,1326.4531238933332,11703.998152
1379220325,1236.7224713946669,11703.998152
1379220625,1503.963762532,11703.998152
1379220925,1377.1704492186668,11703.998152
1379221225,1371.3184501426667,11703.998152
1379221525,1388.8744473706663,11703.998152
1379221825,1585.891749596,11703.998152
1379222125,1925.307696004,11703.998152
1379222425,1876.541037037333,11703.998152
1379222725,2229.611647956,11703.998152
1379223025,2153.535659968,11703.998152
1379223325,1585.891749596,11703.998152
1379223625,2331.046298606667,11703.998152
1379223925,934.3691858013334,11703.998152
1379224225,1004.5931747133334,11703.998152
1379224525,1414.233110033333,11703.998152
1379224825,1710.7343965506668,11703.998152
1379225126,1525.421092477333,11703.998152
1379225426,1915.5543642106668,11703.998152
1379225726,3957.902041734666,11703.998152
1379226026,3234.2048226693337,11703.998152
1379226326,3197.142161854667,11703.998152
1379226626,3598.97943174,11703.998152
1379226926,3284.9221479946664,11703.998152
1379227226,4365.591310696,11703.998152
1379227526,2703.623573112,11703.998152
1379227826,2459.790278278667,11703.998152
1379228126,2114.5223327946665,11703.998152
1379228426,2305.687635944,11703.998152
1379228726,1455.1971035653332,11703.998152
1379229026,2348.6022958346666,11703.998152
1379229326,1732.1917264960002,11703.998152
1379229626,1186.0051460693333,11703.998152
1379229926,957.7771821053334,11703.998152
1379230226,965.57984754,11703.998152
1379230526,1180.1531469933334,11703.998152
1379230826,751.0065480866666,11703.998152
1379231126,754.907880804,11703.998152
1379231426,700.2892227613333,11703.998152
1379231726,1365.4664510666669,11703.998152
1379232026,1445.443771772,11703.998152
1379232326,1937.011694156,11703.998152
1379232626,1453.2464372066668,11703.998152
1379232926,1578.0890841613332,11703.998152
1379233226,1285.4891303613333,11703.998152
1379233526,1277.6864649266668,11703.998152
1379233826,1310.847793024,11703.998152
1379234126,1217.215807808,11703.998152
1379234426,1457.147769924,11703.998152
1379234726,2570.9782607226666,11703.998152
1379235027,1435.6904399786667,11703.998152
1379235327,1232.8211386773337,11703.998152
1379235627,1180.1531469933334,11703.998152
1379235927,1219.1664741666668,11703.998152
1379236227,1236.7224713946669,11703.998152
1379236527,1086.5211617773334,11703.998152
1379236827,1225.0184732426667,11703.998152
1379237127,1488.3584316626666,11703.998152
1379237427,1191.857145145333,11703.998152
1379237727,1086.5211617773334,11703.998152
1379238027,1609.2997459,11703.998152
1379238327,1537.1250906293333,11703.998152
1379238627,2141.831661816,11703.998152
1379238927,1336.206455686667,11703.998152
1379239227,1381.071781936,11703.998152
1379239527,1281.587797644,11703.998152
1379239827,1429.838440902667,11703.998152
1379240127,1361.5651183493333,11703.998152
1379240427,1295.2424621546668,11703.998152
1379240727,1386.923781012,11703.998152
1379241027,1207.462476014667,11703.998152
1379241327,1383.022448294667,11703.998152
1379241627,1369.3677837839998,11703.998152
1379241927,1328.403790252,11703.998152
1379242227,1829.725044429333,11703.998152
1379242527,2210.104984369333,11703.998152
1379242827,1743.895724648,11703.998152
1379243127,1810.2183808426664,11703.998152
1379243427,1775.1063863866668,11703.998152
1379243727,1273.7851322093331,11703.998152
1379244027,1207.462476014667,11703.998152
1379244327,1507.8650952493333,11703.998152
1379244627,1642.4610739973332,11703.998152
1379244927,1660.0170712253332,11703.998152
1379245227,2114.5223327946665,11703.998152
1379245527,1316.6997921,11703.998152
1379245827,1203.5611432973333,11703.998152
1379246127,1213.3144750906667,11703.998152
1379246427,1264.031800416,11703.998152
1379246727,1166.4984824826668,11703.998152
1379247027,1002.6425083546668,11703.998152
1379247327,1109.9291580813335,11703.998152
1379247627,2173.042323554667,11703.998152
1379247927,1712.6850629093333,11703.998152
1379248227,1597.595747748,11703.998152
1379248527,1574.1877514439998,11703.998152
1379248827,1905.801032417333,11703.998152
1379249127,1488.3584316626666,11703.998152
1379249427,1102.1264926466663,11703.998152
1379249727,1148.9424852546667,11703.998152
1379250028,1324.5024575346667,11703.998152
1379250328,1749.7477237239998,11703.998152
1379250628,1291.3411294373334,11703.998152
1379250928,1332.3051229693333,11703.998152
1379251228,1648.313073073333,11703.998152
1379251528,1804.3663817666668,11703.998152
1379251828,1773.155720028,11703.998152
1379252128,1985.7783531226669,11703.998152
1379252428,1909.7023651346667,11703.998152
1379252728,1899.9490333413328,11703.998152
1379253028,2178.894322630667,11703.998152
1379253328,1868.7383716026668,11703.998152
1379253628,1533.223757912,11703.998152
1379253928,1476.6544335106666,11703.998152
1379254228,1154.7944843306668,11703.998152
1379254528,1240.623804112,11703.998152
1379254828,2631.448917841333,11703.998152
1379255128,1944.8143595906668,11703.998152
1379255428,2407.1222865946665,11703.998152
1379255728,2500.754271810666,11703.998152
1379256028,2832.367552784,11703.998152
1379256328,2245.216978825333,11703.998152
1379256628,2126.2263309466666,11703.998152
1379256928,2163.288991761334,11703.998152
1379257228,2143.7823281746664,11703.998152
1379257528,2354.4542949106667,11703.998152
1379257828,2194.4996535,11703.998152
1379258128,1942.8636932320003,11703.998152
1379258428,1962.3703568186663,11703.998152
1379258729,1827.774378070667,11703.998152
1379259029,1905.801032417333,11703.998152
1379259329,1985.7783531226669,11703.998152
1379259629,2106.71966736,11703.998152
1379259929,2186.696988065333,11703.998152
1379260229,1658.0664048666667,11703.998152
1379260529,1779.0077191039998,11703.998152
1379260829,2434.4316156160003,11703.998152
1379261129,1944.8143595906668,11703.998152
1379261429,1915.5543642106668,11703.998152
1379261729,1814.11971356,11703.998152
1379262029,2225.7103152386667,11703.998152
1379262329,2327.144965889333,11703.998152
1379262629,1763.402388234667,11703.998152
1379262929,1765.3530545933331,11703.998152
1379263229,1638.55974128,11703.998152
1379263529,1849.231708016,11703.998152
1379263829,1603.447746824,11703.998152
1379264129,1782.9090518213332,11703.998152
1379264429,1661.967737584,11703.998152
1379264729,1944.8143595906668,11703.998152
1379265029,1644.411740356,11703.998152
1379265329,1942.8636932320003,11703.998152
1379265629,2245.216978825333,11703.998152
1379265929,1948.715692308,11703.998152
1379266229,1359.6144519906668,11703.998152
1379266529,2375.9116248560003,11703.998152
1379266829,985.0865111266666,11703.998152
1379267129,1160.646483406667,11703.998152
1379267429,1367.4171174253331,11703.998152
1379267729,1084.5704954186665,11703.998152
1379268029,1359.6144519906668,11703.998152
1379268329,2192.5489871413333,11703.998152
1379268629,1833.626377146667,11703.998152
1379268929,1135.287820744,11703.998152
1379269230,953.875849388,11703.998152
1379269530,877.7998613999999,11703.998152
1379269830,1039.7051691693332,11703.998152
1379270130,1470.802434434667,11703.998152
1379270430,1006.543841072,11703.998152
1379270730,1086.5211617773334,11703.998152
1379271030,1057.2611663973332,11703.998152
1379271330,1219.1664741666668,11703.998152
1379271630,1418.1344427506667,11703.998152
1379271930,3183.487497344,11703.998152
1379272230,1478.6050998693331,11703.998152
1379272530,1777.057052745333,11703.998152
1379272830,1788.7610508973337,11703.998152
1379273130,1583.9410832373333,11703.998152
1379273430,1308.8971266653332,11703.998152
1379273730,1648.313073073333,11703.998152
1379274030,1162.5971497653334,11703.998152
1379274330,1203.5611432973333,11703.998152
1379274630,1324.5024575346667,11703.998152
1379274930,1217.215807808,11703.998152
1379275230,1182.103813352,11703.998152
1379275530,2180.844988989333,11703.998152
1379275830,1295.2424621546668,11703.998152
1379276130,1351.811786556,11703.998152
1379276430,1437.6411063373334,11703.998152
1379276730,1248.4264695466668,11703.998152
1379277030,1236.7224713946669,11703.998152
1379277330,2061.854341110667,11703.998152
1379277630,1597.595747748,11703.998152
1379277930,2196.4503198586667,11703.998152
1379278230,2235.463647032,11703.998152
1379278530,2106.71966736,11703.998152
1379278830,1931.15969508,11703.998152
1379279130,2204.252985293333,11703.998152
1379279430,1921.4063632866664,11703.998152
1379279730,1591.743748672,11703.998152
1379280030,1400.5784455226667,11703.998152
1379280330,1695.1290656813333,11703.998152
1379280630,1702.9317311160005,11703.998152
1379280930,2188.647654424,11703.998152
1379281230,1671.7210693773334,11703.998152
1379281530,1624.9050767693334,11703.998152
1379281830,1956.518357742667,11703.998152
1379282130,1564.4344196506668,11703.998152
1379282433,2340.7996304,11703.998152
1379282733,2600.2382561026666,11703.998152
1379283033,1677.573068453333,11703.998152
1379283333,1478.6050998693331,11703.998152
1379283633,1080.669162701333,11703.998152
1379283933,1269.883799492,11703.998152
1379284233,1342.0584547626668,11703.998152
1379284533,1546.8784224226663,11703.998152
1379284833,1423.9864418266668,11703.998152
1379285133,1767.303720952,11703.998152
1379285433,2048.1996766,11703.998152
1379285733,1749.7477237239998,11703.998152
1379286033,1621.003744052,11703.998152
1379286333,2522.211601756,11703.998152
1379286633,1624.9050767693334,11703.998152
1379286933,1055.3105000386663,11703.998152
1379287233,1029.951837376,11703.998152
1379287533,1008.4945074306668,11703.998152
1379287833,1145.0411525373331,11703.998152
1379288133,1115.7811571573334,11703.998152
1379288433,1256.2291349813331,11703.998152
1379288733,953.875849388,11703.998152
1379289033,1067.0144981906667,11703.998152
1379289333,981.1851784093332,11703.998152
1379289633,817.3292042813333,11703.998152
1379289933,3784.292735813333,11703.998152
1379290233,2063.8050074693333,11703.998152
1379290533,823.1812033573334,11703.998152
1379290833,729.5492181413334,11703.998152
1379291133,774.4145443906666,11703.998152
1379291433,1047.507834604,11703.998152
1379291734,815.3785379226666,11703.998152
1379292034,1012.395840148,11703.998152
1379292334,745.1545490106666,11703.998152
1379292634,758.8092135213333,11703.998152
1379292934,957.7771821053334,11703.998152
1379293234,928.5171867253332,11703.998152
1379293534,903.1585240626664,11703.998152
1379293834,809.5265388466667,11703.998152
1379294134,987.0371774853334,11703.998152
1379294434,1041.655835528,11703.998152
1379294734,1033.8531700933336,11703.998152
1379295034,1061.1624991146666,11703.998152
1379295334,1049.458500962667,11703.998152
1379295634,1043.6065018866666,11703.998152
1379295934,737.351883576,11703.998152
1379296234,770.5132116733334,11703.998152
1379296534,731.4998845,11703.998152
1379296834,706.1412218373334,11703.998152
1379297134,1238.673137753333,11703.998152
1379297434,1031.9025037346669,11703.998152
1379297734,922.6651876493332,11703.998152
1379298034,780.2665434666666,11703.998152
1379298334,805.6252061293334,11703.998152
1379298634,862.1945305306667,11703.998152
1379298934,887.5531931933334,11703.998152
1379299234,1168.4491488413337,11703.998152
1379299534,969.4811802573332,11703.998152
1379299834,869.9971959653334,11703.998152
1379300134,735.4012172173335,11703.998152
1379300434,1024.0998383,11703.998152
1379300734,1164.5478161239998,11703.998152
1379301035,883.651860476,11703.998152
1379301335,667.127894664,11703.998152
1379301635,764.6612125973334,11703.998152
1379301935,883.651860476,11703.998152
1379302235,938.2705185186664,11703.998152
1379302535,871.947862324,11703.998152
1379302835,585.1999076,11703.998152
1379303135,583.2492412413334,11703.998152
1379303435,552.0385795026667,11703.998152
1379303735,579.347908524,11703.998152
1379304035,561.791911296,11703.998152
1379304335,567.6439103719999,11703.998152
1379304635,618.3612356973334,11703.998152
1379304935,620.311902056,11703.998152
1379305235,565.6932440133334,11703.998152
1379305535,569.5945767306667,11703.998152
1379305835,630.0652338493334,11703.998152
1379306135,571.5452430893333,11703.998152
1379306435,589.1012403173333,11703.998152
1379306735,589.1012403173333,11703.998152
1379307035,598.8545721106667,11703.998152
1379307335,612.5092366213333,11703.998152
1379307635,569.5945767306667,11703.998152
1379307935,577.3972421653334,11703.998152
1379308235,598.8545721106667,11703.998152
1379308535,538.383914992,11703.998152
1379308835,479.863924232,11703.998152
1379309135,626.163901132,11703.998152
1379309435,1041.655835528,11703.998152
1379309735,520.8279177640001,11703.998152
1379310035,491.567922384,11703.998152
1379310335,509.123919612,11703.998152
1379310635,553.9892458613333,11703.998152
1379310935,955.8265157466666,11703.998152
1379311235,710.0425545546667,11703.998152
1379311535,639.8185656426666,11703.998152
1379311835,893.4051922693334,11703.998152
1379312135,990.9385102026666,11703.998152
1379312435,1449.3451044893332,11703.998152
1379312735,1057.2611663973332,11703.998152
1379313035,1273.7851322093331,11703.998152
1379313335,782.2172098253334,11703.998152
1379313635,938.2705185186664,11703.998152
1379313935,1217.215807808,11703.998152
1379314235,1375.21978286,11703.998152
1379314535,1301.0944612306669,11703.998152
1379314835,1107.9784917226666,11703.998152
1379315135,1123.583822592,11703.998152
1379315435,1189.9064787866666,11703.998152
1379315735,1201.6104769386668,11703.998152
1379316035,1053.35983368,11703.998152
1379316335,1135.287820744,11703.998152
1379316635,1115.7811571573334,11703.998152
1379316935,1853.1330407333328,11703.998152
1379317235,1402.5291118813332,11703.998152
1379317535,1355.7131192733332,11703.998152
1379317835,1482.5064325866667,11703.998152
1379318135,1459.0984362826669,11703.998152
1379318435,1016.2971728653334,11703.998152
1379318735,1111.87982444,11703.998152
1379319035,977.283845692,11703.998152
1379319335,979.2345120506668,11703.998152
1379319635,914.8625222146668,11703.998152
1379319935,944.1225175946668,11703.998152
1379320236,985.0865111266666,11703.998152
1379320536,1000.691841996,11703.998152
1379320836,1010.4451737893334,11703.998152
1379321136,1410.3317773160002,11703.998152
1379321436,2457.83961192,11703.998152
1379321736,2888.9368771853333,11703.998152
1379322036,2288.131638716,11703.998152
1379322336,2933.802203434667,11703.998152
1379322636,3421.4687931013336,11703.998152
1379322936,3698.463416032,11703.998152
1379323236,522.4999175,11703.998152
1379323536,411.5906016786667,11703.998152
1379323836,427.195932548,11703.998152
1379324136,384.2812726573333,11703.998152
1379324436,438.8999307,11703.998152
1379324736,477.9132578733333,11703.998152
1379325036,1437.6411063373334,11703.998152
1379325336,725.6478854239999,11703.998152
1379325636,688.5852246093334,11703.998152
1379325936,731.4998845,11703.998152
1379326236,390.1332717333333,11703.998152
1379326536,479.863924232,11703.998152
1379326836,405.7386026026667,11703.998152
1379327136,360.87327635333327,11703.998152
1379327436,397.0999373,11703.998152
1379327736,390.1332717333333,11703.998152
1379328036,341.3666127666667,11703.998152
1379328336,423.2945998306667,11703.998152
1379328636,429.14659890666667,11703.998152
1379328936,397.935937168,11703.998152
1379329236,390.82993829,11703.998152
1379329536,671.0292273813334,11703.998152
1379329836,407.6892689613333,11703.998152
1379330136,419.39326711333325,11703.998152
1379330436,397.935937168,11703.998152
1379330737,372.01994126,11703.998152
1379331037,388.18260537466665,11703.998152
1379331337,438.8999307,11703.998152
1379331637,423.2945998306667,11703.998152
1379331937,417.999934,11703.998152
1379332237,392.083938092,11703.998152
1379332537,409.63993532,11703.998152
1379332837,367.83994192,11703.998152
1379333137,423.2945998306667,11703.998152
1379333437,407.6892689613333,11703.998152
1379333737,415.491934396,11703.998152
1379334037,1324.5024575346667,11703.998152
1379334337,628.1145674906666,11703.998152
1379334637,407.6892689613333,11703.998152
1379334937,409.63993532,11703.998152
1379335237,403.787936244,11703.998152
1379335537,401.8372698853333,11703.998152
1379335837,411.5906016786667,11703.998152
1379336137,395.9852708093333,11703.998152
1379336437,423.2945998306667,11703.998152
1379336737,442.8012634173333,11703.998152
1379337037,403.787936244,11703.998152
1379337337,421.343933472,11703.998152
1379337637,368.675941788,11703.998152
1379337937,653.4732301533335,11703.998152
1379338237,401.8372698853333,11703.998152
1379338537,409.63993532,11703.998152
1379338837,360.87327635333327,11703.998152
1379339137,419.39326711333325,11703.998152
1379339437,438.8999307,11703.998152
1379339737,415.491934396,11703.998152
1379340037,415.491934396,11703.998152
1379340337,940.2211848773331,11703.998152
1379340637,358.9226099946667,11703.998152
1379340938,380.37993994,11703.998152
1379341238,1496.1610970973334,11703.998152
1379341538,561.791911296,11703.998152
1379341838,444.751929776,11703.998152
1379342137,651.5225637946667,11703.998152
1379342437,388.18260537466665,11703.998152
1379342737,390.1332717333333,11703.998152
1379343037,392.083938092,11703.998152
1379343337,376.4786072226667,11703.998152
1379343637,397.935937168,11703.998152
1379343937,2210.104984369333,11703.998152
1379344237,409.63993532,11703.998152
1379344537,429.14659890666667,11703.998152
1379344837,394.0346044506667,11703.998152
1379345137,374.5279408640001,11703.998152
1379345437,442.8012634173333,11703.998152
1379345737,1486.407765304,11703.998152
1379346037,495.4692551013333,11703.998152
1379346337,434.9985979826667,11703.998152
1379346638,403.787936244,11703.998152
1379346938,372.5772745053333,11703.998152
1379347238,474.011925156,11703.998152
1379347538,1053.35983368,11703.998152
1379347838,433.04793162400006,11703.998152
1379348138,372.5772745053333,11703.998152
1379348438,392.083938092,11703.998152
1379348738,401.8372698853333,11703.998152
1379349038,427.195932548,11703.998152
1379349338,981.1851784093332,11703.998152
1379349638,388.18260537466665,11703.998152
1379349938,376.4786072226667,11703.998152
1379350238,355.0212772773333,11703.998152
1379350538,353.0706109186667,11703.998152
1379350838,413.5412680373333,11703.998152
1379351138,2186.696988065333,11703.998152
1379351438,360.87327635333327,11703.998152
1379351738,394.0346044506667,11703.998152
1379352038,405.7386026026667,11703.998152
1379352338,399.8866035266667,11703.998152
1379352638,419.39326711333325,11703.998152
1379352938,3310.2808106573334,11703.998152
1379353238,1320.6011248173336,11703.998152
1379353538,548.1372467853333,11703.998152
1379353838,1080.669162701333,11703.998152
1379354138,700.2892227613333,11703.998152
1379354438,708.0918881959999,11703.998152
1379354738,2485.1489409413334,11703.998152
1379355038,1658.0664048666667,11703.998152
1379355338,1445.443771772,11703.998152
1379355638,910.9611894973334,11703.998152
1379355938,727.5985517826666,11703.998152
1379356238,727.5985517826666,11703.998152
1379356538,2430.5302828986664,11703.998152
1379356839,1751.6983900826665,11703.998152
1379357139,2346.651629476,11703.998152
1379357439,944.1225175946668,11703.998152
1379357739,1045.5571682453333,11703.998152
1379358039,786.1185425426665,11703.998152
1379358339,2171.091657196,11703.998152
1379358639,711.9932209133334,11703.998152
1379358939,626.163901132,11703.998152
1379359239,764.6612125973334,11703.998152
1379359539,805.6252061293334,11703.998152
1379359839,830.983868792,11703.998152
1379360139,1654.1650721493334,11703.998152
1379360439,936.31985216,11703.998152
1379360739,899.2571913453335,11703.998152
1379361039,994.83984292,11703.998152
1379361339,953.875849388,11703.998152
1379361639,942.171851236,11703.998152
1379361939,3177.635498268,11703.998152
1379362239,1273.7851322093331,11703.998152
1379362539,1858.985039809333,11703.998152
1379362839,1751.6983900826665,11703.998152
1379363139,1892.146367906667,11703.998152
1379363439,1234.7718050360002,11703.998152
1379363739,2096.966335566667,11703.998152
1379364039,1544.9277560639998,11703.998152
1379364339,1712.6850629093333,11703.998152
1379364639,1771.2050536693332,11703.998152
1379364939,1874.5903706786664,11703.998152
1379365239,1624.9050767693334,11703.998152
1379365539,2262.7729760533334,11703.998152
1379365839,1121.6331562333337,11703.998152
1379366139,1094.323827212,11703.998152
1379366439,948.023850312,11703.998152
1379366739,1250.377135905333,11703.998152
1379367039,815.3785379226666,11703.998152
1379367339,1459.0984362826669,11703.998152
1379367640,805.6252061293334,11703.998152
1379367940,971.431846616,11703.998152
1379368240,1028.0011710173335,11703.998152
1379368540,1228.91980596,11703.998152
1379368841,1862.886372526667,11703.998152
1379369141,2877.2328790333336,11703.998152
1379369441,1835.5770435053328,11703.998152
1379369741,1486.407765304,11703.998152
1379370041,973.3825129746666,11703.998152
1379370342,920.7145212906668,11703.998152
1379370642,881.7011941173333,11703.998152
1379370942,1191.857145145333,11703.998152
1379371242,1107.9784917226666,11703.998152
1379371542,1318.650458458667,11703.998152
1379371842,1925.307696004,11703.998152
1379372142,1379.1211155773333,11703.998152
1379372442,2496.8529390933336,11703.998152
1379372742,3497.544781089334,11703.998152
1379373042,1373.2691165013332,11703.998152
1379373342,1088.471828136,11703.998152
1379373642,1067.0144981906667,11703.998152
1379373942,1262.0811340573334,11703.998152
1379374242,1125.5344889506666,11703.998152
1379374542,1365.4664510666669,11703.998152
1379374842,1603.447746824,11703.998152
1379375142,1143.0904861786669,11703.998152
1379375442,1248.4264695466668,11703.998152
1379375742,1394.726446446667,11703.998152
1379376042,1225.0184732426667,11703.998152
1379376342,3602.8807644573335,11703.998152
1379376642,1433.73977362,11703.998152
1379376942,1484.4570989453332,11703.998152
1379377242,1525.421092477333,11703.998152
1379377542,842.687866944,11703.998152
1379377842,686.6345582506666,11703.998152
1379378142,711.9932209133334,11703.998152
1379378442,743.2038826520001,11703.998152
1379378742,667.127894664,11703.998152
1379379042,715.8945536306667,11703.998152
1379379342,905.1091904213332,11703.998152
1379379642,715.8945536306667,11703.998152
1379379942,1392.775780088,11703.998152
1379380242,735.4012172173335,11703.998152
1379380542,1072.8664972666666,11703.998152
1379380842,967.5305138986664,11703.998152
1379381142,825.131869716,11703.998152
1379381442,776.3652107493333,11703.998152
1379381742,889.5038595519999,11703.998152
1379382042,827.0825360746667,11703.998152
1379382342,852.4411987373335,11703.998152
1379382642,842.687866944,11703.998152
1379382942,981.1851784093332,11703.998152
1379383242,899.2571913453335,11703.998152
1379383542,1232.8211386773337,11703.998152
1379383842,756.8585471626667,11703.998152
1379384142,1031.9025037346669,11703.998152
1379384442,877.7998613999999,11703.998152
1379384742,776.3652107493333,11703.998152
1379385042,996.7905092786666,11703.998152
1379385342,762.7105462386667,11703.998152
1379385642,1107.9784917226666,11703.998152
1379385943,998.7411756373334,11703.998152
1379386243,862.1945305306667,11703.998152
1379386543,809.5265388466667,11703.998152
1379386843,924.615854008,11703.998152
1379387143,869.9971959653334,11703.998152
1379387443,760.7598798800001,11703.998152
1379387743,690.535890968,11703.998152
1379388043,747.1052153693335,11703.998152
1379388343,793.9212079773334,11703.998152
1379388643,969.4811802573332,11703.998152
1379388943,1145.0411525373331,11703.998152
1379389243,985.0865111266666,11703.998152
1379389543,1388.8744473706663,11703.998152
1379389843,710.0425545546667,11703.998152
1379390143,832.9345351506666,11703.998152
1379390443,786.1185425426665,11703.998152
1379390743,667.127894664,11703.998152
1379391043,875.8491950413332,11703.998152
1379391343,1344.0091211213332,11703.998152
1379391643,930.467853084,11703.998152
1379391943,1135.287820744,11703.998152
1379392243,661.275895588,11703.998152
1379392543,871.947862324,11703.998152
1379392843,1049.458500962667,11703.998152
1379393143,1232.8211386773337,11703.998152
1379393443,1316.6997921,11703.998152
1379393743,1191.857145145333,11703.998152
1379394043,1353.7624529146667,11703.998152
1379394343,1478.6050998693331,11703.998152
1379394643,1361.5651183493333,11703.998152
1379394943,1248.4264695466668,11703.998152
1379395243,1242.5744704706667,11703.998152
1379395544,1174.3011479173333,11703.998152
1379395844,1287.43979672,11703.998152
1379396144,1111.87982444,11703.998152
1379396444,1010.4451737893334,11703.998152
1379396744,940.2211848773331,11703.998152
1379397044,1336.206455686667,11703.998152
1379397344,1542.9770897053331,11703.998152
1379397644,1369.3677837839998,11703.998152
1379397944,1342.0584547626668,11703.998152
1379398244,1351.811786556,11703.998152
1379398544,1342.0584547626668,11703.998152
1379398844,1630.7570758453332,11703.998152
1379399144,1330.3544566106668,11703.998152
1379399444,1250.377135905333,11703.998152
1379399744,1172.3504815586666,11703.998152
1379400044,1197.7091442213334,11703.998152
1379400344,1496.1610970973334,11703.998152
1379400644,1587.8424159546669,11703.998152
1379400944,1312.7984593826666,11703.998152
1379401244,1191.857145145333,11703.998152
1379401544,1195.7584778626667,11703.998152
1379401844,961.6785148226668,11703.998152
1379402144,799.7732070533334,11703.998152
1379402444,930.467853084,11703.998152
1379402744,1392.775780088,11703.998152
1379403044,1020.1985055826668,11703.998152
1379403344,1020.1985055826668,11703.998152
1379403644,1096.274493570667,11703.998152
1379403944,1256.2291349813331,11703.998152
1379404244,1583.9410832373333,11703.998152
1379404545,575.4465758066667,11703.998152
1379404845,922.6651876493332,11703.998152
1379405145,932.4185194426666,11703.998152
1379405445,1993.5810185573328,11703.998152
1379405745,2746.5382330026664,11703.998152
1379406045,390.1332717333333,11703.998152
1379406345,370.6266081466667,11703.998152
1379406645,403.787936244,11703.998152
1379406945,419.39326711333325,11703.998152
1379407245,499.3705878186667,11703.998152
1379407545,2297.884970509333,11703.998152
1379407844,3425.3701258186666,11703.998152
1379408144,1347.9104538386666,11703.998152
1379408444,374.5279408640001,11703.998152
1379408744,429.14659890666667,11703.998152
1379409044,388.18260537466665,11703.998152
1379409344,805.6252061293334,11703.998152
1379409644,3657.4994225,11703.998152
1379409944,4948.840551937333,11703.998152
1379410245,3821.355396628,11703.998152
1379410545,813.427871564,11703.998152
1379410845,520.8279177640001,11703.998152
1379411145,661.275895588,11703.998152
1379411445,805.6252061293334,11703.998152
1379411745,665.1772283053334,11703.998152
1379412045,585.1999076,11703.998152
1379412345,596.903905752,11703.998152
1379412645,591.051906676,11703.998152
1379412945,575.4465758066667,11703.998152
1379413245,583.2492412413334,11703.998152
1379413545,585.1999076,11703.998152
1379413845,620.311902056,11703.998152
1379414145,563.7425776546667,11703.998152
1379414445,594.9532393933333,11703.998152
1379414745,610.5585702626666,11703.998152
1379415045,635.9172329253333,11703.998152
1379415345,614.45990298,11703.998152
1379415645,589.1012403173333,11703.998152
1379415945,858.2931978133333,11703.998152
1379416245,604.7065711866667,11703.998152
1379416545,559.8412449373333,11703.998152
1379416845,647.6212310773334,11703.998152
1379417145,641.7692320013334,11703.998152
1379417446,593.0025730346666,11703.998152
1379417746,632.0159002080001,11703.998152
1379418046,559.8412449373333,11703.998152
1379418346,575.4465758066667,11703.998152
1379418646,559.8412449373333,11703.998152
1379418946,567.6439103719999,11703.998152
1379419246,596.903905752,11703.998152
1379419546,659.3252292293333,11703.998152
1379419846,626.163901132,11703.998152
1379420146,620.311902056,11703.998152
1379420446,1468.851768076,11703.998152
1379420746,817.3292042813333,11703.998152
1379422143,540.3345813506667,11703.998152
1379422443,516.9265850466668,11703.998152
1379422743,507.1732532533333,11703.998152
1379423043,532.531915916,11703.998152
1379423343,563.7425776546667,11703.998152
1379423643,563.7425776546667,11703.998152
1379423943,532.531915916,11703.998152
1379424243,758.8092135213333,11703.998152
1379424543,591.051906676,11703.998152
1379424843,536.4332486333333,11703.998152
1379425143,552.0385795026667,11703.998152
1379425443,596.903905752,11703.998152
1379425743,602.7559048280001,11703.998152
1379426043,587.1505739586667,11703.998152
1379426343,635.9172329253333,11703.998152
1379426643,1092.3731608533335,11703.998152
1379426943,575.4465758066667,11703.998152
1379427243,577.3972421653334,11703.998152
1379427543,561.791911296,11703.998152
1379427843,596.903905752,11703.998152
1379428143,569.5945767306667,11703.998152
1379428443,821.2305369986666,11703.998152
1379428743,587.1505739586667,11703.998152
1379429043,591.051906676,11703.998152
1379429343,604.7065711866667,11703.998152
1379429643,563.7425776546667,11703.998152
1379429943,596.903905752,11703.998152
1379430243,2026.7423466546668,11703.998152
1379430543,1849.231708016,11703.998152
1379430843,694.4372236853333,11703.998152
1379431143,1851.1823743746668,11703.998152
1379431443,618.3612356973334,11703.998152
1379431744,559.8412449373333,11703.998152
1379432044,983.135844768,11703.998152
1379432344,901.207857704,11703.998152
1379432644,713.943887272,11703.998152
1379432944,643.71989836,11703.998152
1379433244,388.18260537466665,11703.998152
1379433544,341.3666127666667,11703.998152
1379433844,1045.5571682453333,11703.998152
1379434144,401.8372698853333,11703.998152
1379434444,316.00795010400003,11703.998152
1379434744,358.9226099946667,11703.998152
1379435044,374.5279408640001,11703.998152
1379435344,386.231939016,11703.998152
1379435644,1051.4091673213336,11703.998152
1379435944,735.4012172173335,11703.998152
1379436244,327.711948256,11703.998152
1379436544,316.00795010400003,11703.998152
1379436844,378.42927358133335,11703.998152
1379437144,394.0346044506667,11703.998152
1379437444,1628.806409486667,11703.998152
1379437744,700.2892227613333,11703.998152
1379438044,546.1865804266668,11703.998152
1379438344,606.6572375453334,11703.998152
1379438644,583.2492412413334,11703.998152
1379438944,530.5812495573333,11703.998152
1379439244,2223.75964888,11703.998152
1379439544,1819.971712636,11703.998152
1379439844,1045.5571682453333,11703.998152
1379440144,858.2931978133333,11703.998152
1379440444,897.3065249866667,11703.998152
1379440744,1326.4531238933332,11703.998152
1379441044,1890.195701548,11703.998152
1379441344,1160.646483406667,11703.998152
1379441644,879.7505277586667,11703.998152
1379441944,916.8131885733336,11703.998152
1379442244,1051.4091673213336,11703.998152
1379442544,1314.749125741333,11703.998152
1379442844,1884.343702472,11703.998152
1379443144,754.907880804,11703.998152
1379443445,710.0425545546667,11703.998152
1379443745,1041.655835528,11703.998152
1379444045,493.5185887426667,11703.998152
1379444345,532.531915916,11703.998152
1379444645,2670.4622450146667,11703.998152
1379444945,1933.1103614386664,11703.998152
1379445245,1644.411740356,11703.998152
1379445545,1384.9731146533334,11703.998152
1379445845,1564.4344196506668,11703.998152
1379446145,844.6385333026666,11703.998152
1379446445,1736.0930592133332,11703.998152
1379446745,710.0425545546667,11703.998152
1379447045,844.6385333026666,11703.998152
1379447345,692.4865573266667,11703.998152
1379447645,661.275895588,11703.998152
1379447945,604.7065711866667,11703.998152
1379448245,2641.202249634667,11703.998152
1379448545,1215.2651414493332,11703.998152
1379448845,860.243864172,11703.998152
1379449145,1094.323827212,11703.998152
1379449445,1020.1985055826668,11703.998152
1379449745,1420.0851091093334,11703.998152
1379450045,2231.5623143146668,11703.998152
1379450345,1505.9144288906668,11703.998152
1379450645,1689.2770666053332,11703.998152
1379451245,1201.6104769386668,11703.998152
1379451545,850.4905323786667,11703.998152
1379451845,1260.1304676986667,11703.998152
1379452145,854.391865096,11703.998152
1379452445,895.355858628,11703.998152
1379452745,1314.749125741333,11703.998152
1379453045,1558.582420574667,11703.998152
1379453345,1145.0411525373331,11703.998152
1379453645,2372.0102921386665,11703.998152
1379453945,1769.2543873106667,11703.998152
1379454245,1814.11971356,11703.998152
1379454545,1365.4664510666669,11703.998152
1379454846,1381.071781936,11703.998152
1379455146,1542.9770897053331,11703.998152
1379455455,1706.8330638333332,11703.998152
1379455755,1665.8690703013333,11703.998152
1379456055,2048.1996766,11703.998152
1379456356,1353.7624529146667,11703.998152
1379456656,1892.146367906667,11703.998152
1379456956,1475.5397670200002,11703.998152
1379457256,2014.75968188,11703.998152
1379457556,1061.1624991146666,11703.998152
1379457856,893.4051922693334,11703.998152
1379458156,1264.44980035,11703.998152
1379458456,1478.6050998693331,11703.998152
1379458756,1258.17980134,11703.998152
1379459056,2100.867668284,11703.998152
1379459356,1455.1971035653332,11703.998152
1379459656,1515.667760684,11703.998152
1379459956,1607.20974623,11703.998152
1379460256,1303.045127589333,11703.998152
1379460556,1492.2597643800002,11703.998152
1379460856,1446.27977164,11703.998152
1379461156,1474.703767152,11703.998152
1379461456,1790.711717256,11703.998152
1379461756,1552.7304214986666,11703.998152
1379462056,1443.493105413333,11703.998152
1379462356,1523.4704261186666,11703.998152
1379462656,3339.540806037334,11703.998152
1379462956,1622.9544104106667,11703.998152
1379463256,1191.857145145333,11703.998152
1379463556,1195.7584778626667,11703.998152
1379463856,1205.5118096560002,11703.998152
1379464156,1392.775780088,11703.998152
1379464456,1273.7851322093331,11703.998152
1379464756,1406.4304445986668,11703.998152
1379465056,1476.6544335106666,11703.998152
1379465356,1381.071781936,11703.998152
1379465656,1714.635729268,11703.998152
1379465956,1527.3717588360005,11703.998152
1379466256,1738.043725572,11703.998152
1379466556,1819.971712636,11703.998152
1379466856,1492.2597643800002,11703.998152
1379467156,1564.4344196506668,11703.998152
1379467457,1687.3264002466667,11703.998152
1379467757,1535.1744242706668,11703.998152
1379468057,1726.33972742,11703.998152
1379468357,1890.195701548,11703.998152
1379468657,1870.6890379613333,11703.998152
1379468957,1708.783730192,11703.998152
1379469257,1779.0077191039998,11703.998152
1379469557,1761.4517218760002,11703.998152
1379469857,2096.966335566667,11703.998152
1379470157,1862.886372526667,11703.998152
1379470457,1769.2543873106667,11703.998152
1379470757,1644.411740356,11703.998152
1379471057,1818.0210462773327,11703.998152
1379471357,1726.33972742,11703.998152
1379471657,1646.3624067146668,11703.998152
1379471957,1425.9371081853333,11703.998152
1379472257,1587.8424159546669,11703.998152
1379472557,1724.3890610613337,11703.998152
1379472857,1708.783730192,11703.998152
1379473157,1622.9544104106667,11703.998152
1379473457,1745.8463910066669,11703.998152
1379473757,1648.313073073333,11703.998152
1379474057,1640.5104076386667,11703.998152
1379474357,1700.9810647573331,11703.998152
1379474657,1862.886372526667,11703.998152
1379474957,1837.527709864,11703.998152
1379475257,1964.321023177333,11703.998152
1379475557,1574.1877514439998,11703.998152
1379475857,1542.9770897053331,11703.998152
1379476157,2118.4236655120003,11703.998152
1379476457,2028.6930130133333,11703.998152
1379476758,2001.383683992,11703.998152
1379477058,1991.6303521986667,11703.998152
1379477358,1640.5104076386667,11703.998152
1379477658,1704.882397474667,11703.998152
1379477958,1765.3530545933331,11703.998152
1379478258,1979.9263540466668,11703.998152
1379478558,2171.091657196,11703.998152
1379478858,2134.0289963813334,11703.998152
1379479158,1556.631754216,11703.998152
1379479458,1915.5543642106668,11703.998152
1379479758,1437.6411063373334,11703.998152
1379480058,1675.622402094667,11703.998152
1379480358,1478.6050998693331,11703.998152
1379480658,1390.8251137293337,11703.998152
1379480958,1338.1571220453332,11703.998152
1379481258,1279.6371312853332,11703.998152
1379481558,1357.663785632,11703.998152
1379481858,1304.995793948,11703.998152
1379482158,1355.7131192733332,11703.998152
1379482458,1416.1837763919998,11703.998152
1379482758,1673.671735736,11703.998152
1379483058,1765.3530545933331,11703.998152
1379483358,1794.613049973333,11703.998152
1379483658,1913.603697852,11703.998152
1379483958,1788.7610508973337,11703.998152
1379484258,1983.827686764,11703.998152
1379484558,1511.766427966667,11703.998152
1379484858,1533.223757912,11703.998152
1379485158,1597.595747748,11703.998152
1379485458,1591.743748672,11703.998152
1379485758,1482.5064325866667,11703.998152
1379486059,1353.7624529146667,11703.998152
1379486359,1377.1704492186668,11703.998152
1379486659,1866.787705244,11703.998152
1379486959,1808.267714484,11703.998152
1379487259,1074.8171636253333,11703.998152
1379487559,1252.327802264,11703.998152
1379487859,1379.1211155773333,11703.998152
1379488159,1459.0984362826669,11703.998152
1379488459,1525.421092477333,11703.998152
1379488759,1558.582420574667,11703.998152
1379489059,1615.151744976,11703.998152
1379489359,1503.963762532,11703.998152
1379489659,1624.9050767693334,11703.998152
1379489959,1626.855743128,11703.998152
1379490259,4035.928696081333,11703.998152
1379490559,4443.617965042667,11703.998152
1379490859,4199.784670209334,11703.998152
1379491159,4289.515322708,11703.998152
1379491459,4221.242000154666,11703.998152
1379491759,4014.471366136,11703.998152
1379492059,4108.103351352,11703.998152
1379492359,4028.126030646666,11703.998152
1379492659,4008.61936706,11703.998152
1379492959,4000.816701625334,11703.998152
1379493259,4041.780695157333,11703.998152
1379493559,4020.323365212,11703.998152
1379493859,4016.422032494666,11703.998152
1379494159,4026.175364288,11703.998152
1379494459,4006.668700701333,11703.998152
1379494759,4033.978029722666,11703.998152
1379495059,4293.416655425334,11703.998152
1379495359,4110.054017710667,11703.998152
1379495659,4080.794022330667,11703.998152
1379495959,3961.803374452,11703.998152
1379496260,4020.323365212,11703.998152
1379496560,3905.2340500506666,11703.998152
1379496860,3944.247377224001,11703.998152
1379497160,3967.655373528,11703.998152
1379497460,4067.13935782,11703.998152
1379497760,4076.892689613334,11703.998152
1379498060,3985.211370756,11703.998152
1379498360,4043.731361516,11703.998152
1379498660,4098.350019558667,11703.998152
1379498960,3961.803374452,11703.998152
1379499260,4000.816701625334,11703.998152
1379499560,4244.6499964586665,11703.998152
1379499860,4474.828626781334,11703.998152
1379500160,4281.712657273334,11703.998152
1379500460,4203.686002926666,11703.998152
1379500760,4172.475341188,11703.998152
1379501060,5208.27917764,11703.998152
1379501360,4149.067344884001,11703.998152
1379501660,5017.113874490667,11703.998152
1379501960,4418.25930238,11703.998152
1379502260,4199.784670209334,11703.998152
1379502560,4170.524674829333,11703.998152
1379502860,4158.820676677333,11703.998152
1379503160,4268.057992762667,11703.998152
1379503460,4277.811324556,11703.998152
1379503760,4197.834003850667,11703.998152
1379504060,4303.169987218666,11703.998152
1379504360,4229.044665589333,11703.998152
1379504660,4266.107326404001,11703.998152
1379504960,4336.331315316,11703.998152
1379505260,4252.452661893333,11703.998152
1379505561,4232.945998306666,11703.998152
1379505861,4217.340667437333,11703.998152
1379506161,4305.1206535773335,11703.998152
1379506461,4388.999307,11703.998152
1379506761,4340.232648033334,11703.998152
1379507061,4248.551329176,11703.998152
1379507361,4199.784670209334,11703.998152
1379507661,4158.820676677333,11703.998152
1379507961,4137.3633467320005,11703.998152
1379508261,4127.610014938667,11703.998152
1379508561,4130.536014476666,11703.998152
1379508861,4158.820676677333,11703.998152
1379509161,4102.251352276,11703.998152
1379509461,4133.462014014666,11703.998152
1379509761,4470.927294064,11703.998152
1379510061,4611.375271888,11703.998152
1379510361,5021.015207208,11703.998152
1379510661,4870.813897590667,11703.998152
1379510961,5337.023157312,11703.998152
1379511261,5015.163208132,11703.998152
1379511561,5196.575179488,11703.998152
1379511861,5586.708451221332,11703.998152
1379512161,5073.683198892,11703.998152
1379512461,4697.204591669333,11703.998152
1379512761,4472.877960422668,11703.998152
1379513061,4545.052615693334,11703.998152
1379513361,5073.683198892,11703.998152
1379513661,5251.193837530666,11703.998152
1379513961,5141.956521445333,11703.998152
1379514261,4424.111301456,11703.998152
1379514561,4135.412680373334,11703.998152
1379514861,4018.3726988533335,11703.998152
1379515161,3918.888714561334,11703.998152
1379515461,3930.592712713334,11703.998152
1379515761,1896.047700624,11703.998152
1379516061,2738.735567568,11703.998152
1379516361,2295.934304150667,11703.998152
1379516661,1663.9184039426668,11703.998152
1379516961,1860.9357061680005,11703.998152
1379517261,2258.871643336,11703.998152
1379517561,1217.215807808,11703.998152
1379517861,1051.4091673213336,11703.998152
1379518161,1119.6824898746663,11703.998152
1379518461,1940.913026873333,11703.998152
1379518762,1408.3811109573332,11703.998152
1379519062,1086.5211617773334,11703.998152
1379519362,1174.3011479173333,11703.998152
1379519662,1031.9025037346669,11703.998152
1379519962,1117.731823516,11703.998152
1379520262,1611.2504122586668,11703.998152
1379520562,1029.951837376,11703.998152
1379520862,710.0425545546667,11703.998152
1379521162,692.4865573266667,11703.998152
1379521462,657.3745628706665,11703.998152
1379521762,672.97989374,11703.998152
1379522062,1236.7224713946669,11703.998152
1379522362,628.1145674906666,11703.998152
1379522662,741.2532162933334,11703.998152
1379522962,932.4185194426666,11703.998152
1379523262,891.4545259106666,11703.998152
1379523562,887.5531931933334,11703.998152
1379523862,1671.7210693773334,11703.998152
1379524162,1004.5931747133334,11703.998152
1379524462,503.271920536,11703.998152
1379524762,526.67991684,11703.998152
1379525062,559.8412449373333,11703.998152
1379525362,522.7785841226666,11703.998152
1379525662,2377.8622912146666,11703.998152
1379525962,2110.621000077333,11703.998152
1379526262,1527.3717588360005,11703.998152
1379526562,996.7905092786666,11703.998152
1379526862,667.127894664,11703.998152
1379527162,791.9705416186666,11703.998152
1379527462,2280.3289732813337,11703.998152
1379527762,1570.2864187266669,11703.998152
1379528063,655.4238965119999,11703.998152
1379528363,690.535890968,11703.998152
1379528663,686.6345582506666,11703.998152
1379528963,1219.1664741666668,11703.998152
1379529263,1839.4783762226664,11703.998152
1379529563,571.5452430893333,11703.998152
1379529863,602.7559048280001,11703.998152
1379530163,581.2985748826667,11703.998152
1379530463,567.6439103719999,11703.998152
1379530763,528.6305831986666,11703.998152
1379531063,1609.2997459,11703.998152
1379531363,706.1412218373334,11703.998152
1379531663,536.4332486333333,11703.998152
1379531963,499.3705878186667,11703.998152
1379532263,481.8145905906667,11703.998152
1379532563,875.8491950413332,11703.998152
1379532863,2483.1982745826667,11703.998152
1379533163,1141.13981982,11703.998152
1379533463,953.875849388,11703.998152
1379533763,593.0025730346666,11703.998152
1379534063,899.2571913453335,11703.998152
1379534363,587.1505739586667,11703.998152
1379534663,1849.231708016,11703.998152
1379534963,1076.767829984,11703.998152
1379535263,807.5758724880001,11703.998152
1379535563,1720.487728344,11703.998152
1379535863,2038.446344806667,11703.998152
1379536163,1373.2691165013332,11703.998152
1379536463,1983.827686764,11703.998152
1379536763,1386.923781012,11703.998152
1379537064,692.4865573266667,11703.998152
1379537364,807.5758724880001,11703.998152
1379537664,768.5625453146666,11703.998152
1379537964,1246.475803188,11703.998152
1379538264,2379.8129575733333,11703.998152
1379538564,1217.215807808,11703.998152
1379538864,1420.0851091093334,11703.998152
1379539164,1322.551791176,11703.998152
1379539464,1390.8251137293337,11703.998152
1379539764,1632.707742204,11703.998152
1379540064,1979.9263540466668,11703.998152
1379540364,969.4811802573332,11703.998152
1379540664,1082.61982906,11703.998152
1379540964,846.5891996613334,11703.998152
1379541264,819.27987064,11703.998152
1379541564,887.5531931933334,11703.998152
1379541868,1279.6371312853332,11703.998152
1379542168,805.6252061293334,11703.998152
1379542468,854.391865096,11703.998152
1379542768,710.0425545546667,11703.998152
1379543068,608.6079039040001,11703.998152
1379543368,959.727848464,11703.998152
1379543668,1226.9691396013334,11703.998152
1379543968,690.535890968,11703.998152
1379544268,540.3345813506667,11703.998152
1379544568,559.8412449373333,11703.998152
1379544868,612.5092366213333,11703.998152
1379545168,948.023850312,11703.998152
1379545468,1837.527709864,11703.998152
1379545768,998.7411756373334,11703.998152
1379546068,897.3065249866667,11703.998152
1379546368,1211.363808732,11703.998152
1379546668,1092.3731608533335,11703.998152
1379546968,1137.2384871026668,11703.998152
1379547268,1191.857145145333,11703.998152
1379547568,1100.175826288,11703.998152
1379547868,1207.462476014667,11703.998152
1379548168,1433.73977362,11703.998152
1379548468,1406.4304445986668,11703.998152
1379548768,1402.5291118813332,11703.998152
1379549068,2941.604868869334,11703.998152
1379549368,1929.2090287213337,11703.998152
1379549668,1355.7131192733332,11703.998152
1379549968,1111.87982444,11703.998152
1379550268,944.1225175946668,11703.998152
1379550568,1002.6425083546668,11703.998152
1379550868,1299.143794872,11703.998152
1379551169,1287.43979672,11703.998152
1379551469,1542.9770897053331,11703.998152
1379551769,1363.5157847080002,11703.998152
1379552069,1521.5197597600002,11703.998152
1379552369,1197.7091442213334,11703.998152
1379552669,1279.6371312853332,11703.998152
1379552969,1381.071781936,11703.998152
1379553269,1139.1891534613335,11703.998152
1379553569,1082.61982906,11703.998152
1379553869,1480.555766228,11703.998152
1379554169,1470.802434434667,11703.998152
1379554469,2087.213003773333,11703.998152
1379554769,1342.0584547626668,11703.998152
1379555069,1406.4304445986668,11703.998152
1379555369,1061.1624991146666,11703.998152
1379555669,1297.1931285133332,11703.998152
1379555969,1351.811786556,11703.998152
1379556269,2190.598320782666,11703.998152
1379556569,1277.6864649266668,11703.998152
1379556869,1265.9824667746668,11703.998152
1379557169,1468.851768076,11703.998152
1379557469,1525.421092477333,11703.998152
1379557769,1445.443771772,11703.998152
1379558069,1265.9824667746668,11703.998152
1379558369,1468.851768076,11703.998152
1379558669,1500.062429814667,11703.998152
1379558969,1527.3717588360005,11703.998152
1379559269,1940.913026873333,11703.998152
1379559569,1718.5370619853334,11703.998152
1379559869,1806.317048125333,11703.998152
1379560169,1956.518357742667,11703.998152
1379560469,1753.6490564413334,11703.998152
1379560769,1786.8103845386668,11703.998152
1379561069,1763.402388234667,11703.998152
1379561369,1819.971712636,11703.998152
1379561669,2221.8089825213333,11703.998152
1379561969,1576.1384178026667,11703.998152
1379562269,1394.726446446667,11703.998152
1379562569,1638.55974128,11703.998152
1379562869,1544.9277560639998,11703.998152
1379563169,1581.9904168786668,11703.998152
1379563469,1642.4610739973332,11703.998152
1379563769,1679.523734812,11703.998152
1379564069,1716.586395626667,11703.998152
1379564369,1542.9770897053331,11703.998152
1379564669,1513.7170943253334,11703.998152
1379564969,1587.8424159546669,11703.998152
1379565269,1911.6530314933327,11703.998152
1379565569,1583.9410832373333,11703.998152
1379565869,1626.855743128,11703.998152
1379566169,1546.8784224226663,11703.998152
1379566469,1474.703767152,11703.998152
1379566769,1771.2050536693332,11703.998152
1379567069,1439.591772696,11703.998152
1379567369,1476.6544335106666,11703.998152
1379567669,1601.497080465333,11703.998152
1379567969,1632.707742204,11703.998152
1379568269,1521.5197597600002,11703.998152
1379568569,1681.4744011706666,11703.998152
1379568869,1660.0170712253332,11703.998152
1379569169,1771.2050536693332,11703.998152
1379569469,1907.751698776,11703.998152
1379569770,1757.5503891586666,11703.998152
1379570070,1552.7304214986666,11703.998152
1379570370,1564.4344196506668,11703.998152
1379570670,1671.7210693773334,11703.998152
1379570970,1617.1024113346668,11703.998152
1379571270,1396.677112805333,11703.998152
1379571570,1628.806409486667,11703.998152
1379571870,1675.622402094667,11703.998152
1379572170,1611.2504122586668,11703.998152
1379572470,1700.9810647573331,11703.998152
1379572770,1599.5464141066668,11703.998152
1379573070,1546.8784224226663,11703.998152
1379573370,1578.0890841613332,11703.998152
1379573670,1517.6184270426666,11703.998152
1379573970,1605.398413182667,11703.998152
1379574270,1558.582420574667,11703.998152
1379574570,1617.1024113346668,11703.998152
1379574870,1541.026423346667,11703.998152
1379575170,1537.1250906293333,11703.998152
1379575470,1905.801032417333,11703.998152
1379575770,1804.3663817666668,11703.998152
1379576070,1240.623804112,11703.998152
1379576370,1228.91980596,11703.998152
1379576670,1139.1891534613335,11703.998152
1379576970,1160.646483406667,11703.998152
1379577270,1576.1384178026667,11703.998152
1379577570,1394.726446446667,11703.998152
1379577870,2336.898297682667,11703.998152
1379578170,1658.0664048666667,11703.998152
1379578470,1691.227732964,11703.998152
1379578770,1646.3624067146668,11703.998152
1379579070,1578.0890841613332,11703.998152
1379579370,1158.695817048,11703.998152
1379579670,1152.843817972,11703.998152
1379579970,1146.991818896,11703.998152
1379580270,1121.6331562333337,11703.998152
1379580570,1780.958385462667,11703.998152
1379580870,1661.967737584,11703.998152
1379581170,1365.4664510666669,11703.998152
1379581470,1710.7343965506668,11703.998152
1379581770,1802.415715408,11703.998152
1379582070,1544.9277560639998,11703.998152
1379582370,1638.55974128,11703.998152
1379582670,1806.317048125333,11703.998152
1379582970,2069.6570065453334,11703.998152
1379583270,1759.5010555173335,11703.998152
1379583570,1293.291795796,11703.998152
1379583870,1533.223757912,11703.998152
1379584170,1291.3411294373334,11703.998152
1379584471,1104.0771590053334,11703.998152
1379584771,914.8625222146668,11703.998152
1379585071,1022.1491719413336,11703.998152
1379585371,959.727848464,11703.998152
1379585671,912.911855856,11703.998152
1379585971,973.3825129746666,11703.998152
1379586271,1201.6104769386668,11703.998152
1379586571,766.611878956,11703.998152
1379586871,805.6252061293334,11703.998152
1379587171,752.9572144453334,11703.998152
1379587471,745.1545490106666,11703.998152
1379587771,951.9251830293332,11703.998152
1379588071,813.427871564,11703.998152
1379588371,922.6651876493332,11703.998152
1379588671,1045.5571682453333,11703.998152
1379588971,992.8891765613334,11703.998152
1379589271,1008.4945074306668,11703.998152
1379589571,975.3331793333334,11703.998152
1379589871,971.431846616,11703.998152
1379590171,910.9611894973334,11703.998152
1379590471,951.9251830293332,11703.998152
1379590771,983.135844768,11703.998152
1379591071,951.9251830293332,11703.998152
1379591371,912.911855856,11703.998152
1379591671,1068.9651645493332,11703.998152
1379591971,1070.915830908,11703.998152
1379592271,1145.0411525373331,11703.998152
1379592571,1244.5251368293334,11703.998152
1379592871,1137.2384871026668,11703.998152
1379593171,1404.47977824,11703.998152
1379593471,1148.9424852546667,11703.998152
1379593771,1092.3731608533335,11703.998152
1379594071,1067.0144981906667,11703.998152
1379594371,1640.5104076386667,11703.998152
1379594671,1568.3357523680002,11703.998152
1379594972,1777.057052745333,11703.998152
1379595272,2565.1262616466665,11703.998152
1379595572,2247.167645184,11703.998152
1379595872,2227.6609815973334,11703.998152
1379596172,2670.4622450146667,11703.998152
1379596472,2307.638302302667,11703.998152
1379596771,1515.667760684,11703.998152
1379597071,1720.487728344,11703.998152
1379597371,1644.411740356,11703.998152
1379597671,2178.894322630667,11703.998152
1379597971,3657.4994225,11703.998152
1379598272,2654.8569141453336,11703.998152
1379598572,1849.231708016,11703.998152
1379598872,1966.271689536,11703.998152
1379599172,1076.767829984,11703.998152
1379599472,1275.735798568,11703.998152
1379599772,1541.026423346667,11703.998152
1379600072,1061.1624991146666,11703.998152
1379600372,840.7372005853333,11703.998152
1379600672,717.8452199893334,11703.998152
1379600972,708.0918881959999,11703.998152
1379601272,1006.543841072,11703.998152
1379601572,758.8092135213333,11703.998152
1379601872,790.0198752599999,11703.998152
1379602172,940.2211848773331,11703.998152
1379602472,1843.37970894,11703.998152
1379602772,795.871874336,11703.998152
1379603072,3150.3261692466663,11703.998152
1379603372,1533.223757912,11703.998152
1379603672,846.5891996613334,11703.998152
1379603972,786.1185425426665,11703.998152
1379605933,1148.9424852546667,11703.998152
1379606233,996.7905092786666,11703.998152
1379606533,1310.847793024,11703.998152
1379606833,1453.2464372066668,11703.998152
1379607133,2258.871643336,11703.998152
1379607433,1509.815761608,11703.998152
1379607733,1176.251814276,11703.998152
1379608033,1092.3731608533335,11703.998152
1379608333,1265.9824667746668,11703.998152
1379608633,1260.1304676986667,11703.998152
1379608933,1250.377135905333,11703.998152
1379609233,1148.9424852546667,11703.998152
1379609533,1156.7451506893333,11703.998152
1379609833,1158.695817048,11703.998152
1379610133,1591.743748672,11703.998152
1379610433,1794.613049973333,11703.998152
1379610733,1626.855743128,11703.998152
1379611033,1254.2784686226669,11703.998152
1379611333,1156.7451506893333,11703.998152
1379611633,909.0105231386666,11703.998152
1379611933,1517.6184270426666,11703.998152
1379612233,1611.2504122586668,11703.998152
1379612533,1472.753100793333,11703.998152
1379612833,1484.4570989453332,11703.998152
1379613133,1558.582420574667,11703.998152
1379613433,1650.263739432,11703.998152
1379613733,2297.884970509333,11703.998152
1379614033,2549.520930777333,11703.998152
1379614334,2356.4049612693334,11703.998152
1379614634,2414.924952029334,11703.998152
1379614934,2303.7369695853336,11703.998152
1379615234,1459.0984362826669,11703.998152
1379615534,1730.2410601373333,11703.998152
1379615834,1880.4423697546663,11703.998152
1379616134,790.0198752599999,11703.998152
1379616434,684.6838918919999,11703.998152
1379616734,704.1905554786666,11703.998152
1379617034,891.4545259106666,11703.998152
1379617334,1517.6184270426666,11703.998152
1379617634,1447.394438130667,11703.998152
1379617934,1215.2651414493332,11703.998152
1379618234,1096.274493570667,11703.998152
1379618534,698.3385564026665,11703.998152
1379618834,774.4145443906666,11703.998152
1379619134,1355.7131192733332,11703.998152
1379619434,912.911855856,11703.998152
1379619734,803.6745397706666,11703.998152
1379620034,795.871874336,11703.998152
1379620334,743.2038826520001,11703.998152
1379620634,717.8452199893334,11703.998152
1379620934,1521.5197597600002,11703.998152
1379621234,1640.5104076386667,11703.998152
1379621534,1422.035775468,11703.998152
1379621834,809.5265388466667,11703.998152
1379622134,1000.691841996,11703.998152
1379622434,1726.33972742,11703.998152
1379622734,1734.142392854667,11703.998152
1379623034,1541.026423346667,11703.998152
1379623334,1008.4945074306668,11703.998152
1379623634,1246.475803188,11703.998152
1379623935,899.2571913453335,11703.998152
1379624235,786.1185425426665,11703.998152
1379624535,1420.0851091093334,11703.998152
1379624835,674.9305600986667,11703.998152
1379625135,766.611878956,11703.998152
1379625435,889.5038595519999,11703.998152
1379625735,758.8092135213333,11703.998152
1379626035,793.9212079773334,11703.998152
1379626335,1710.7343965506668,11703.998152
1379626635,1788.7610508973337,11703.998152
1379626935,1699.0303983986669,11703.998152
1379627235,1351.811786556,11703.998152
1379627535,1250.377135905333,11703.998152
1379627835,1043.6065018866666,11703.998152
1379628138,1780.958385462667,11703.998152
1379628438,1164.5478161239998,11703.998152
1379628738,1213.3144750906667,11703.998152
1379629038,1234.7718050360002,11703.998152
1379629338,1535.1744242706668,11703.998152
1379629638,1178.2024806346667,11703.998152
1379629938,1755.5997228,11703.998152
1379630238,1201.6104769386668,11703.998152
1379630538,1207.462476014667,11703.998152
1379630838,1441.5424390546668,11703.998152
1379631138,1252.327802264,11703.998152
1379631438,1562.483753292,11703.998152
1379631738,2658.7582468626665,11703.998152
1379632038,1714.635729268,11703.998152
1379632338,1892.146367906667,11703.998152
1379632638,1527.3717588360005,11703.998152
1379632938,1572.237085085333,11703.998152
1379633238,1402.5291118813332,11703.998152
1379633538,1422.035775468,11703.998152
1379633838,1262.0811340573334,11703.998152
1379634138,1186.0051460693333,11703.998152
1379634438,1308.8971266653332,11703.998152
1379634738,1320.6011248173336,11703.998152
1379635038,1316.6997921,11703.998152
1379635338,1831.675710788,11703.998152
1379635638,3212.747492724,11703.998152
1379635939,1047.507834604,11703.998152
1379636239,1029.951837376,11703.998152
1379636539,1316.6997921,11703.998152
1379636839,1193.807811504,11703.998152
1379637139,1306.946460306667,11703.998152
1379637439,1262.0811340573334,11703.998152
1379637739,1195.7584778626667,11703.998152
1379638039,1381.071781936,11703.998152
1379638339,1316.6997921,11703.998152
1379638639,1529.3224251946667,11703.998152
1379638939,1985.7783531226669,11703.998152
1379639239,1650.263739432,11703.998152
1379639539,1425.9371081853333,11703.998152
1379639839,1310.847793024,11703.998152
1379640139,1304.995793948,11703.998152
1379640439,1326.4531238933332,11703.998152
1379640739,1605.398413182667,11703.998152
1379641039,1570.2864187266669,11703.998152
1379641339,1700.9810647573331,11703.998152
1379641639,1860.9357061680005,11703.998152
1379641939,1677.573068453333,11703.998152
1379642239,1459.0984362826669,11703.998152
1379642539,1628.806409486667,11703.998152
1379642839,1765.3530545933331,11703.998152
1379643139,1788.7610508973337,11703.998152
1379643439,1412.2824436746669,11703.998152
1379643739,1736.0930592133332,11703.998152
1379644039,1310.847793024,11703.998152
1379644339,1328.403790252,11703.998152
1379644639,1187.9558124280002,11703.998152
1379644939,1621.003744052,11703.998152
1379645239,1677.573068453333,11703.998152
1379645539,1890.195701548,11703.998152
1379645839,1505.9144288906668,11703.998152
1379646139,1580.03975052,11703.998152
1379646439,1564.4344196506668,11703.998152
1379646739,1739.9943919306668,11703.998152
1379647039,1369.3677837839998,11703.998152
1379647340,1303.045127589333,11703.998152
1379647640,1219.1664741666668,11703.998152
1379647940,1634.6584085626666,11703.998152
1379648240,2128.1769973053333,11703.998152
1379648540,1739.9943919306668,11703.998152
1379648840,1880.4423697546663,11703.998152
1379649140,1755.5997228,11703.998152
1379649440,1441.5424390546668,11703.998152
1379649740,1369.3677837839998,11703.998152
1379650040,1236.7224713946669,11703.998152
1379650340,1338.1571220453332,11703.998152
1379650640,1357.663785632,11703.998152
1379650940,1466.9011017173334,11703.998152
1379651240,1299.143794872,11703.998152
1379651540,1369.3677837839998,11703.998152
1379651840,1416.1837763919998,11703.998152
1379652140,1355.7131192733332,11703.998152
1379652440,1482.5064325866667,11703.998152
1379652740,1743.895724648,11703.998152
1379653040,1823.8730453533333,11703.998152
1379653340,1818.0210462773327,11703.998152
1379653640,1480.555766228,11703.998152
1379653940,1451.2957708479998,11703.998152
1379654240,1295.2424621546668,11703.998152
1379654540,1197.7091442213334,11703.998152
1379654840,1443.493105413333,11703.998152
1379655140,1303.045127589333,11703.998152
1379655440,1359.6144519906668,11703.998152
1379655740,1913.603697852,11703.998152
1379656040,1371.3184501426667,11703.998152
1379656341,1527.3717588360005,11703.998152
1379656641,1679.523734812,11703.998152
1379656941,1685.375733888,11703.998152
1379657241,1326.4531238933332,11703.998152
1379657540,1260.1304676986667,11703.998152
1379657840,1757.5503891586666,11703.998152
1379658140,1445.443771772,11703.998152
1379658440,1726.33972742,11703.998152
1379658741,1773.155720028,11703.998152
1379659041,1537.1250906293333,11703.998152
1379659341,1092.3731608533335,11703.998152
1379659641,1135.287820744,11703.998152
1379659941,790.0198752599999,11703.998152
1379660241,959.727848464,11703.998152
1379660541,920.7145212906668,11703.998152
1379660841,1316.6997921,11703.998152
1379661141,1254.2784686226669,11703.998152
1379661441,1141.13981982,11703.998152
1379661741,1115.7811571573334,11703.998152
1379662041,1121.6331562333337,11703.998152
1379662341,1106.027825364,11703.998152
1379662641,1029.951837376,11703.998152
1379662941,1455.1971035653332,11703.998152
1379663241,1340.1077884039998,11703.998152
1379663541,1361.5651183493333,11703.998152
1379663841,1410.3317773160002,11703.998152
1379664141,1564.4344196506668,11703.998152
1379664441,1802.415715408,11703.998152
1379664741,1024.0998383,11703.998152
1379665041,949.9745166706668,11703.998152
1379665341,979.2345120506668,11703.998152
1379665641,1291.3411294373334,11703.998152
1379665941,1474.703767152,11703.998152
1379666241,1630.7570758453332,11703.998152
1379666541,1574.1877514439998,11703.998152
1379666841,1404.47977824,11703.998152
1379667141,1145.0411525373331,11703.998152
1379667442,975.3331793333334,11703.998152
1379667742,1033.8531700933336,11703.998152
1379668042,1281.587797644,11703.998152
1379668342,760.7598798800001,11703.998152
1379668642,358.9226099946667,11703.998152
1379668942,1047.507834604,11703.998152
1379669242,2258.871643336,11703.998152
1379669542,368.675941788,11703.998152
1379669842,360.87327635333327,11703.998152
1379670142,591.051906676,11703.998152
1379670442,809.5265388466667,11703.998152
1379670742,372.5772745053333,11703.998152
1379671042,372.5772745053333,11703.998152
1379671342,429.14659890666667,11703.998152
1379671642,345.267945484,11703.998152
1379671942,405.7386026026667,11703.998152
1379672242,386.231939016,11703.998152
1379672542,438.8999307,11703.998152
1379672842,417.4426007546667,11703.998152
1379673142,458.4065942866668,11703.998152
1379673442,392.083938092,11703.998152
1379673742,417.4426007546667,11703.998152
1379674042,440.85059705866666,11703.998152
1379674342,433.04793162400006,11703.998152
1379674642,423.2945998306667,11703.998152
1379674942,608.6079039040001,11703.998152
1379675242,434.9985979826667,11703.998152
1379675542,372.5772745053333,11703.998152
1379675842,460.3572606453333,11703.998152
1379676142,397.935937168,11703.998152
1379676442,356.971943636,11703.998152
1379676743,409.63993532,11703.998152
1379677043,337.46528004933333,11703.998152
1379677343,370.6266081466667,11703.998152
1379677643,343.3172791253333,11703.998152
1379677943,356.971943636,11703.998152
1379678243,401.8372698853333,11703.998152
1379678543,370.6266081466667,11703.998152
1379678843,368.675941788,11703.998152
1379679143,364.7746090706667,11703.998152
1379679443,411.5906016786667,11703.998152
1379679743,1336.206455686667,11703.998152
1379680043,337.46528004933333,11703.998152
1379680343,360.87327635333327,11703.998152
1379680643,387.694938785,11703.998152
1379680943,347.21861184266663,11703.998152
1379681243,372.5772745053333,11703.998152
1379681543,374.5279408640001,11703.998152
1379681843,343.3172791253333,11703.998152
1379682143,392.083938092,11703.998152
1379682443,382.3306062986667,11703.998152
1379682743,382.3306062986667,11703.998152
1379683043,372.5772745053333,11703.998152
1379683343,415.491934396,11703.998152
1379683643,829.0332024333334,11703.998152
1379683943,384.2812726573333,11703.998152
1379684243,347.21861184266663,11703.998152
1379684543,358.9226099946667,11703.998152
1379684843,345.267945484,11703.998152
1379685143,364.7746090706667,11703.998152
1379685444,370.6266081466667,11703.998152
1379685744,526.67991684,11703.998152
1379686044,587.1505739586667,11703.998152
1379686344,567.6439103719999,11703.998152
1379686644,575.4465758066667,11703.998152
1379686944,544.235914068,11703.998152
1379687244,542.2852477093332,11703.998152
1379687544,741.2532162933334,11703.998152
1379687844,505.2225868946667,11703.998152
1379688144,518.8772514053334,11703.998152
1379688444,520.8279177640001,11703.998152
1379688744,579.347908524,11703.998152
1379689044,1732.1917264960002,11703.998152
1379689344,983.135844768,11703.998152
1379689644,1708.783730192,11703.998152
1379689944,1896.047700624,11703.998152
1379690244,809.5265388466667,11703.998152
1379690544,645.6705647186667,11703.998152
1379690844,674.9305600986667,11703.998152
1379691144,1279.6371312853332,11703.998152
1379691444,1330.3544566106668,11703.998152
1379691744,710.0425545546667,11703.998152
1379692044,725.6478854239999,11703.998152
1379692344,702.23988912,11703.998152
1379692644,649.571897436,11703.998152
1379692944,1131.3864880266667,11703.998152
1379693244,1070.915830908,11703.998152
1379693544,639.8185656426666,11703.998152
1379693844,612.5092366213333,11703.998152
1379694144,645.6705647186667,11703.998152
1379694444,678.831892816,11703.998152
1379694745,1012.395840148,11703.998152
1379695045,790.0198752599999,11703.998152
1379695345,891.4545259106666,11703.998152
1379695645,516.9265850466668,11703.998152
1379695945,593.0025730346666,11703.998152
1379696245,614.45990298,11703.998152
1379696545,1065.063831832,11703.998152
1379696845,1166.4984824826668,11703.998152
1379697145,741.2532162933334,11703.998152
1379697445,805.6252061293334,11703.998152
1379697745,797.8225406946667,11703.998152
1379698045,854.391865096,11703.998152
1379698345,1724.3890610613337,11703.998152
1379698645,2243.266312466667,11703.998152
1379698945,1825.823711712,11703.998152
1379699245,1857.0343734506664,11703.998152
1379699545,725.6478854239999,11703.998152
1379699845,698.3385564026665,11703.998152
1379700145,1330.3544566106668,11703.998152
1379700445,1429.838440902667,11703.998152
1379700745,1000.691841996,11703.998152
1379701045,1205.5118096560002,11703.998152
1379701345,1593.694415030667,11703.998152
1379701645,1466.9011017173334,11703.998152
1379701945,1999.4330176333333,11703.998152
1379702245,1632.707742204,11703.998152
1379702545,2274.4769742053336,11703.998152
1379702845,2016.989014861333,11703.998152
1379703145,1958.4690241013327,11703.998152
1379703445,2609.991587896,11703.998152
1379703745,2327.144965889333,11703.998152
1379704046,1829.725044429333,11703.998152
1379704346,2169.140990837333,11703.998152
1379704646,1995.531684916,11703.998152
1379704946,1656.1157385079998,11703.998152
1379705246,1402.5291118813332,11703.998152
1379705546,1648.313073073333,11703.998152
1379705846,1638.55974128,11703.998152
1379706146,1400.5784455226667,11703.998152
1379706446,1591.743748672,11703.998152
1379706746,1455.1971035653332,11703.998152
1379707046,1511.766427966667,11703.998152
1379707346,2192.5489871413333,11703.998152
1379707646,2013.087682144,11703.998152
1379707946,1330.3544566106668,11703.998152
1379708246,1384.9731146533334,11703.998152
1379708546,1743.895724648,11703.998152
1379708846,1630.7570758453332,11703.998152
1379709146,1474.703767152,11703.998152
1379709446,1094.323827212,11703.998152
1379709746,1096.274493570667,11703.998152
1379710046,1146.991818896,11703.998152
1379710346,1486.407765304,11703.998152
1379710646,1523.4704261186666,11703.998152
1379710946,1880.4423697546663,11703.998152
1379711246,1076.767829984,11703.998152
1379711546,1041.655835528,11703.998152
1379711846,1330.3544566106668,11703.998152
1379712146,1211.363808732,11703.998152
1379712446,1129.435821668,11703.998152
1379712746,1790.711717256,11703.998152
1379713047,1055.3105000386663,11703.998152
1379713347,1109.9291580813335,11703.998152
1379713647,1133.3371543853334,11703.998152
1379713947,1131.3864880266667,11703.998152
1379714247,1084.5704954186665,11703.998152
1379714549,1580.03975052,11703.998152
1379714849,1143.0904861786669,11703.998152
1379715149,910.9611894973334,11703.998152
1379715449,803.6745397706666,11703.998152
1379715749,1082.61982906,11703.998152
1379716049,1427.887774544,11703.998152
1379716349,2096.966335566667,11703.998152
1379716649,1745.8463910066669,11703.998152
1379716949,963.6291811813334,11703.998152
1379717249,1420.0851091093334,11703.998152
1379717549,1451.2957708479998,11703.998152
1379717849,1287.43979672,11703.998152
1379718149,1952.6170250253333,11703.998152
1379718450,1679.523734812,11703.998152
1379718750,1248.4264695466668,11703.998152
1379719050,1242.5744704706667,11703.998152
1379719350,1125.5344889506666,11703.998152
1379719650,1170.3998152,11703.998152
1379719950,1422.035775468,11703.998152
1379720250,1201.6104769386668,11703.998152
1379720550,1318.650458458667,11703.998152
1379720850,1480.555766228,11703.998152
1379721150,1018.247839224,11703.998152
1379721450,1248.4264695466668,11703.998152
1379721750,1363.5157847080002,11703.998152
1379722050,4525.545952106667,11703.998152
1379722350,1563.31975316,11703.998152
1379722650,1507.8650952493333,11703.998152
1379722950,1622.9544104106667,11703.998152
1379723250,1219.1664741666668,11703.998152
1379723550,1225.0184732426667,11703.998152
1379723850,1342.0584547626668,11703.998152
1379724150,1486.407765304,11703.998152
1379724450,1295.2424621546668,11703.998152
1379724750,1080.669162701333,11703.998152
1379725050,1098.2251599293334,11703.998152
1379725350,1786.8103845386668,11703.998152
1379725650,1675.622402094667,11703.998152
1379725950,1396.677112805333,11703.998152
1379726250,1626.855743128,11703.998152
1379726550,1558.582420574667,11703.998152
1379726850,1568.3357523680002,11703.998152
1379727150,1864.8370388853327,11703.998152
1379727450,1369.3677837839998,11703.998152
1379727750,1624.9050767693334,11703.998152
1379728050,2052.101009317333,11703.998152
1379728350,2506.606270886666,11703.998152
1379728650,1915.5543642106668,11703.998152
1379728950,2491.000940017333,11703.998152
1379729250,1777.057052745333,11703.998152
1379729550,1230.8704723186668,11703.998152
1379729850,1314.749125741333,11703.998152
1379730151,1203.5611432973333,11703.998152
1379730451,1535.1744242706668,11703.998152
1379730750,1669.770403018667,11703.998152
1379731050,1695.1290656813333,11703.998152
1379731350,1328.403790252,11703.998152
1379731650,1199.65981058,11703.998152
1379731950,1328.403790252,11703.998152
1379732250,1236.7224713946669,11703.998152
1379732550,1609.2997459,11703.998152
1379732850,1500.062429814667,11703.998152
1379733150,1685.375733888,11703.998152
1379733450,1794.613049973333,11703.998152
1379733750,1453.2464372066668,11703.998152
1379734050,1277.6864649266668,11703.998152
1379734350,1312.7984593826666,11703.998152
1379734650,1168.4491488413337,11703.998152
1379734951,1381.071781936,11703.998152
1379735251,1956.518357742667,11703.998152
1379735551,1656.1157385079998,11703.998152
1379735851,1285.4891303613333,11703.998152
1379736151,1310.847793024,11703.998152
1379736451,1146.991818896,11703.998152
1379736751,2018.93968122,11703.998152
1379737051,1923.357029645333,11703.998152
1379737351,1314.749125741333,11703.998152
1379737651,1521.5197597600002,11703.998152
1379737951,1279.6371312853332,11703.998152
1379738251,1695.1290656813333,11703.998152
1379738551,1634.6584085626666,11703.998152
1379738851,1338.1571220453332,11703.998152
1379739151,1347.9104538386666,11703.998152
1379739451,1808.267714484,11703.998152
1379739751,2165.23965812,11703.998152
1379740051,1617.1024113346668,11703.998152
1379740351,1962.3703568186663,11703.998152
1379740651,1546.8784224226663,11703.998152
1379740951,1938.962360514667,11703.998152
1379741251,2321.2929668133334,11703.998152
1379741551,1907.751698776,11703.998152
1379741851,2171.091657196,11703.998152
1379742151,2348.6022958346666,11703.998152
1379742451,2225.7103152386667,11703.998152
1379742751,3316.132809733333,11703.998152
1379743051,2036.495678448,11703.998152
1379743351,2122.324998229333,11703.998152
1379743651,1958.4690241013327,11703.998152
1379743951,1804.3663817666668,11703.998152
1379744251,1769.2543873106667,11703.998152
1379744551,1704.882397474667,11703.998152
1379744851,1741.9450582893332,11703.998152
1379745151,1687.3264002466667,11703.998152
1379745451,1712.6850629093333,11703.998152
1379745752,1903.8503660586664,11703.998152
1379746052,1562.483753292,11703.998152
1379746352,1558.582420574667,11703.998152
1379746652,1496.1610970973334,11703.998152
1379746952,1738.043725572,11703.998152
1379747251,1546.8784224226663,11703.998152
1379747551,1576.1384178026667,11703.998152
1379747851,1656.1157385079998,11703.998152
1379748151,1599.5464141066668,11703.998152
1379748451,1581.9904168786668,11703.998152
1379748751,1552.7304214986666,11703.998152
1379749051,1542.9770897053331,11703.998152
1379749352,1777.057052745333,11703.998152
1379749652,1899.9490333413328,11703.998152
1379749952,2028.6930130133333,11703.998152
1379750252,2272.526307846667,11703.998152
1379750552,1976.0250213293327,11703.998152
1379750852,1995.531684916,11703.998152
1379751152,1509.815761608,11703.998152
1379751452,1293.291795796,11703.998152
1379751752,1404.47977824,11703.998152
1379752052,1944.8143595906668,11703.998152
1379752352,1404.47977824,11703.998152
1379752652,1388.8744473706663,11703.998152
1379752952,1468.851768076,11703.998152
1379753252,1308.8971266653332,11703.998152
1379753552,1334.255789328,11703.998152
1379753852,1478.6050998693331,11703.998152
1379754152,1531.2730915533332,11703.998152
1379754452,1404.47977824,11703.998152
1379754752,1665.8690703013333,11703.998152
1379755052,1441.5424390546668,11703.998152
1379755352,1780.958385462667,11703.998152
1379755652,1304.995793948,11703.998152
1379755952,1554.6810878573335,11703.998152
1379756252,1609.2997459,11703.998152
1379756552,1702.9317311160005,11703.998152
1379756852,1621.003744052,11703.998152
1379757153,1492.2597643800002,11703.998152
1379757453,1632.707742204,11703.998152
1379757753,1661.967737584,11703.998152
1379758053,1595.6450813893334,11703.998152
1379758353,1566.3850860093332,11703.998152
1379758653,1414.233110033333,11703.998152
1379758953,1299.143794872,11703.998152
1379759253,1798.514382690667,11703.998152
1379759553,1663.9184039426668,11703.998152
1379759853,1693.1783993226668,11703.998152
1379760153,2104.769001001333,11703.998152
1379760453,2180.844988989333,11703.998152
1379760753,1960.41969046,11703.998152
1379761053,1630.7570758453332,11703.998152
1379761353,2075.509005621333,11703.998152
1379761653,1997.4823512746668,11703.998152
1379761953,1976.0250213293327,11703.998152
1379762253,2001.383683992,11703.998152
1379762553,1989.6796858400005,11703.998152
1379762853,1942.8636932320003,11703.998152
1379763153,1892.146367906667,11703.998152
1379763453,1903.8503660586664,11703.998152
1379763753,2297.884970509333,11703.998152
1379764053,1784.8597181799998,11703.998152
1379764353,1537.1250906293333,11703.998152
1379764653,1429.838440902667,11703.998152
1379764953,1398.627779164,11703.998152
1379765253,1345.95978748,11703.998152
1379765553,1236.7224713946669,11703.998152
1379765853,1423.9864418266668,11703.998152
1379766153,1821.9223789946668,11703.998152
1379766453,1375.21978286,11703.998152
1379766753,1363.5157847080002,11703.998152
1379767053,930.467853084,11703.998152
1379767353,899.2571913453335,11703.998152
1379767653,928.5171867253332,11703.998152
1379767953,957.7771821053334,11703.998152
1379768253,1665.8690703013333,11703.998152
1379768553,1572.237085085333,11703.998152
1379768853,1020.1985055826668,11703.998152
1379769153,854.391865096,11703.998152
1379769453,926.5665203666666,11703.998152
1379769753,1724.3890610613337,11703.998152
1379770053,1523.4704261186666,11703.998152
1379770353,1427.887774544,11703.998152
1379770653,1195.7584778626667,11703.998152
1379770954,1730.2410601373333,11703.998152
1379771254,1909.7023651346667,11703.998152
1379771554,1823.8730453533333,11703.998152
1379771854,1905.801032417333,11703.998152
1379772154,2120.3743318706665,11703.998152
1379772454,1931.15969508,11703.998152
1379772754,1730.2410601373333,11703.998152
1379773054,1632.707742204,11703.998152
1379773354,1777.057052745333,11703.998152
1379773654,1812.169047201333,11703.998152
1379773954,3017.6808568573338,11703.998152
1379774254,4322.676650805333,11703.998152
1379774554,4437.765965966667,11703.998152
1379774854,4108.103351352,11703.998152
1379775154,3961.803374452,11703.998152
1379775454,1972.1236886120005,11703.998152
1379775754,3583.3741008706666,11703.998152
1379776054,2151.584993609333,11703.998152
1379776354,2846.022217294667,11703.998152
1379776654,1937.011694156,11703.998152
1379776954,1796.563716332,11703.998152
1379777254,1782.9090518213332,11703.998152
1379777554,2030.643679372,11703.998152
1379777854,1642.4610739973332,11703.998152
1379778154,1833.626377146667,11703.998152
1379778454,1683.425067529333,11703.998152
1379778754,4123.708682221334,11703.998152
1379779054,4626.980602757333,11703.998152
1379779354,4691.352592593334,11703.998152
1379779654,4586.016609225334,11703.998152
1379779954,2840.170218218667,11703.998152
1379780254,1730.2410601373333,11703.998152
1379780554,1630.7570758453332,11703.998152
1379780854,1605.398413182667,11703.998152
1379781154,1570.2864187266669,11703.998152
1379781454,1384.9731146533334,11703.998152
1379781754,1320.6011248173336,11703.998152
1379782055,1453.2464372066668,11703.998152
1379782355,1788.7610508973337,11703.998152
1379782655,1576.1384178026667,11703.998152
1379782955,2295.934304150667,11703.998152
1379783255,2262.7729760533334,11703.998152
1379783555,2110.621000077333,11703.998152
1379783855,2307.638302302667,11703.998152
1379784155,1974.0743549706667,11703.998152
1379784455,1683.425067529333,11703.998152
1379784755,2184.746321706667,11703.998152
1379785055,1835.5770435053328,11703.998152
1379785355,1648.313073073333,11703.998152
1379785655,1574.1877514439998,11703.998152
1379785955,1589.7930823133331,11703.998152
1379786255,1546.8784224226663,11703.998152
1379786555,2024.791680296,11703.998152
1379786855,1759.5010555173335,11703.998152
1379787155,1578.0890841613332,11703.998152
1379787455,1576.1384178026667,11703.998152
1379787755,1650.263739432,11703.998152
1379788055,1798.514382690667,11703.998152
1379788355,2303.7369695853336,11703.998152
1379788655,2317.391634096,11703.998152
1379788956,2208.154318010667,11703.998152
1379789256,2358.355627628,11703.998152
1379789556,2373.960958497333,11703.998152
1379789856,2095.015669208,11703.998152
1379790156,2147.6836608920003,11703.998152
1379790456,1720.487728344,11703.998152
1379790756,1459.0984362826669,11703.998152
1379791056,1299.143794872,11703.998152
1379791356,1558.582420574667,11703.998152
1379791656,1697.0797320400002,11703.998152
1379791956,1782.9090518213332,11703.998152
1379792256,1663.9184039426668,11703.998152
1379792556,1681.4744011706666,11703.998152
1379792856,1607.3490795413331,11703.998152
1379793156,1568.3357523680002,11703.998152
1379793456,1979.9263540466668,11703.998152
1379793756,2863.5782145226667,11703.998152
1379794056,1845.3303752986667,11703.998152
1379794356,1839.4783762226664,11703.998152
1379794656,1749.7477237239998,11703.998152
1379794956,1915.5543642106668,11703.998152
1379795256,1563.31975316,11703.998152
1379795556,1882.393036113333,11703.998152
1379795856,2293.983637792,11703.998152
1379796156,2418.8262847466667,11703.998152
1379796456,2190.598320782666,11703.998152
1379796756,2026.7423466546668,11703.998152
1379797056,2075.509005621333,11703.998152
1379797356,2196.4503198586667,11703.998152
1379797656,2116.472999153333,11703.998152
1379797956,1287.43979672,11703.998152
1379798256,1082.61982906,11703.998152
1379798556,1269.883799492,11703.998152
1379798856,885.6025268346666,11703.998152
1379799156,1595.6450813893334,11703.998152
1379799456,975.3331793333334,11703.998152
1379799756,842.687866944,11703.998152
1379800057,891.4545259106666,11703.998152
1379800357,914.8625222146668,11703.998152
1379800657,1410.3317773160002,11703.998152
1379800958,1593.694415030667,11703.998152
1379801258,1127.485155309333,11703.998152
1379801558,1367.4171174253331,11703.998152
1379801858,994.83984292,11703.998152
1379802158,770.5132116733334,11703.998152
1379802458,1347.9104538386666,11703.998152
1379802758,1702.9317311160005,11703.998152
1379803058,1170.3998152,11703.998152
1379803358,1100.175826288,11703.998152
1379803658,934.3691858013334,11703.998152
1379803958,819.27987064,11703.998152
1379804258,838.7865342266665,11703.998152
1379804558,1685.375733888,11703.998152
1379804858,1189.9064787866666,11703.998152
1379805158,1277.6864649266668,11703.998152
1379805458,1287.43979672,11703.998152
1379805758,1445.443771772,11703.998152
1379806058,1260.1304676986667,11703.998152
1379806358,1823.8730453533333,11703.998152
1379806658,1205.5118096560002,11703.998152
1379806959,1548.8290887813332,11703.998152
1379807259,1640.5104076386667,11703.998152
1379807559,1771.2050536693332,11703.998152
1379807859,2237.414313390667,11703.998152
1379808159,1909.7023651346667,11703.998152
1379808459,5586.708451221332,11703.998152
1379808759,1777.057052745333,11703.998152
1379809059,1675.622402094667,11703.998152
1379809359,1656.1157385079998,11703.998152
1379809659,1697.0797320400002,11703.998152
1379809959,1521.5197597600002,11703.998152
1379810259,1189.9064787866666,11703.998152
1379810559,1248.4264695466668,11703.998152
1379810859,1338.1571220453332,11703.998152
1379811159,1340.1077884039998,11703.998152
1379811459,1381.071781936,11703.998152
1379811759,1823.8730453533333,11703.998152
1379812059,1271.834465850667,11703.998152
1379812359,1191.857145145333,11703.998152
1379812659,1186.0051460693333,11703.998152
1379812959,1152.843817972,11703.998152
1379813259,1230.8704723186668,11703.998152
1379813559,1539.075756988,11703.998152
1379813859,1644.411740356,11703.998152
1379814159,1484.4570989453332,11703.998152
1379814459,1503.963762532,11703.998152
1379814759,1256.2291349813331,11703.998152
1379815059,1228.91980596,11703.998152
1379815359,1654.1650721493334,11703.998152
1379815659,1148.9424852546667,11703.998152
1379815959,1086.5211617773334,11703.998152
1379816259,1047.507834604,11703.998152
1379816559,1187.9558124280002,11703.998152
1379816859,1277.6864649266668,11703.998152
1379817159,1435.6904399786667,11703.998152
1379817459,1043.6065018866666,11703.998152
1379817759,1065.063831832,11703.998152
1379818059,1028.0011710173335,11703.998152
1379818359,1008.4945074306668,11703.998152
1379818659,1063.1131654733333,11703.998152
1379818959,1289.3904630786667,11703.998152
1379819259,1026.0505046586666,11703.998152
1379819559,1201.6104769386668,11703.998152
1379819859,1246.475803188,11703.998152
1379820159,1650.263739432,11703.998152
1379820459,1221.1171405253333,11703.998152
1379820759,1870.6890379613333,11703.998152
1379821060,1605.398413182667,11703.998152
1379821360,1055.3105000386663,11703.998152
1379821660,762.7105462386667,11703.998152
1379821960,977.283845692,11703.998152
1379822260,1059.211832756,11703.998152
1379822560,1117.731823516,11703.998152
1379822860,830.983868792,11703.998152
1379823160,1186.0051460693333,11703.998152
1379823460,1314.749125741333,11703.998152
1379823760,1427.887774544,11703.998152
1379824060,1304.995793948,11703.998152
1379824360,985.0865111266666,11703.998152
1379824660,948.023850312,11703.998152
1379824960,1232.8211386773337,11703.998152
1379825260,842.687866944,11703.998152
1379825560,852.4411987373335,11703.998152
1379825860,1303.045127589333,11703.998152
1379826160,1049.458500962667,11703.998152
1379826460,754.907880804,11703.998152
1379826760,770.5132116733334,11703.998152
1379827060,715.8945536306667,11703.998152
1379827360,918.763854932,11703.998152
1379827660,1047.507834604,11703.998152
1379827960,1400.5784455226667,11703.998152
1379828260,1527.3717588360005,11703.998152
1379828560,2022.8410139373327,11703.998152
1379828860,1724.3890610613337,11703.998152
1379829160,1911.6530314933327,11703.998152
1379829460,1837.527709864,11703.998152
1379829760,1632.707742204,11703.998152
1379830060,2169.140990837333,11703.998152
1379830360,1377.1704492186668,11703.998152
1379830660,1221.1171405253333,11703.998152
1379830960,1422.035775468,11703.998152
1379831260,1371.3184501426667,11703.998152
1379831560,1156.7451506893333,11703.998152
1379831860,1515.667760684,11703.998152
1379832160,2061.854341110667,11703.998152
1379832460,1716.586395626667,11703.998152
1379832760,1790.711717256,11703.998152
1379833060,1254.2784686226669,11703.998152
1379833360,1291.3411294373334,11703.998152
1379833660,1129.435821668,11703.998152
1379833961,1201.6104769386668,11703.998152
1379834261,1207.462476014667,11703.998152
1379834561,1404.47977824,11703.998152
1379834861,1281.587797644,11703.998152
1379835161,1232.8211386773337,11703.998152
1379835461,1225.0184732426667,11703.998152
1379835761,1238.673137753333,11703.998152
1379836061,1082.61982906,11703.998152
1379836361,1950.6663586666668,11703.998152
1379836661,2684.116909525333,11703.998152
1379836961,1488.3584316626666,11703.998152
1379837261,1864.8370388853327,11703.998152
1379837561,2290.0823050746667,11703.998152
1379837861,2116.472999153333,11703.998152
1379838161,2797.255558328,11703.998152
1379838461,2056.002342034667,11703.998152
1379838761,1576.1384178026667,11703.998152
1379839061,2405.1716202360003,11703.998152
1379839361,2754.3408984373336,11703.998152
1379839661,3091.8061784866663,11703.998152
1379839961,3643.8447579893336,11703.998152
1379840261,3454.6301211986665,11703.998152
1379840561,2586.583591592,11703.998152
1379840861,2204.252985293333,11703.998152
1379841161,1250.377135905333,11703.998152
1379841461,1092.3731608533335,11703.998152
1379841761,1583.9410832373333,11703.998152
1379842061,1940.913026873333,11703.998152
1379842362,2067.706340186667,11703.998152
1379842662,2356.4049612693334,11703.998152
1379842962,1347.9104538386666,11703.998152
1379843262,2301.786303226667,11703.998152
1379843562,1172.3504815586666,11703.998152
1379843862,1104.0771590053334,11703.998152
1379844162,1476.6544335106666,11703.998152
1379844462,1505.9144288906668,11703.998152
1379844762,743.2038826520001,11703.998152
1379845062,784.1678761840001,11703.998152
1379845362,1271.834465850667,11703.998152
1379845662,1145.0411525373331,11703.998152
1379845962,1148.9424852546667,11703.998152
1379846262,782.2172098253334,11703.998152
1379846562,1047.507834604,11703.998152
1379846862,916.8131885733336,11703.998152
1379847162,946.0731839533332,11703.998152
1379847462,936.31985216,11703.998152
1379847762,1728.2903937786668,11703.998152
1379848062,1630.7570758453332,11703.998152
1379848362,944.1225175946668,11703.998152
1379848662,1353.7624529146667,11703.998152
1379848962,2368.1089594213336,11703.998152
1379849262,2293.983637792,11703.998152
1379849562,1665.8690703013333,11703.998152
1379849862,1267.9331331333333,11703.998152
1379850163,1751.6983900826665,11703.998152
1379850463,2491.000940017333,11703.998152
1379850763,2054.051675676,11703.998152
1379851063,1535.1744242706668,11703.998152
1379851363,1197.7091442213334,11703.998152
1379851663,1260.1304676986667,11703.998152
1379851963,1340.1077884039998,11703.998152
1379852263,1422.035775468,11703.998152
1379852563,1361.5651183493333,11703.998152
1379852863,1494.210430738667,11703.998152
1379853163,1759.5010555173335,11703.998152
1379853463,1646.3624067146668,11703.998152
1379853763,1644.411740356,11703.998152
1379854063,1702.9317311160005,11703.998152
1379854363,1724.3890610613337,11703.998152
1379854663,1334.255789328,11703.998152
1379854963,1271.834465850667,11703.998152
1379855263,1074.8171636253333,11703.998152
1379855563,916.8131885733336,11703.998152
1379855863,1299.143794872,11703.998152
1379856163,1699.0303983986669,11703.998152
1379856463,1521.5197597600002,11703.998152
1379856763,1542.9770897053331,11703.998152
1379857063,1088.471828136,11703.998152
1379857363,830.983868792,11703.998152
1379857663,975.3331793333334,11703.998152
1379857963,1482.5064325866667,11703.998152
1379858264,936.31985216,11703.998152
1379858564,891.4545259106666,11703.998152
1379858864,672.97989374,11703.998152
1379859164,934.3691858013334,11703.998152
1379859464,1819.971712636,11703.998152
1379859764,1761.4517218760002,11703.998152
1379860064,1792.6623836146669,11703.998152
1379860364,1841.4290425813333,11703.998152
1379860664,737.351883576,11703.998152
1379860964,988.9878438439998,11703.998152
1379861264,899.2571913453335,11703.998152
1379861564,2500.754271810666,11703.998152
1379861864,1960.41969046,11703.998152
1379862164,1954.567691384,11703.998152
1379862464,3407.8141285906663,11703.998152
1379862764,1445.443771772,11703.998152
1379863064,1373.2691165013332,11703.998152
1379863364,1404.47977824,11703.998152
1379863664,1585.891749596,11703.998152
1379863964,1570.2864187266669,11703.998152
1379864264,1511.766427966667,11703.998152
1379864564,1496.1610970973334,11703.998152
1379864864,1330.3544566106668,11703.998152
1379865164,1306.946460306667,11703.998152
1379865464,1814.11971356,11703.998152
1379865764,1946.7650259493328,11703.998152
1379866064,1527.3717588360005,11703.998152
1379866364,1529.3224251946667,11703.998152
1379866664,1747.797057365333,11703.998152
1379866964,2028.6930130133333,11703.998152
1379867264,1710.7343965506668,11703.998152
1379867564,1851.1823743746668,11703.998152
1379867864,1831.675710788,11703.998152
1379868164,1775.1063863866668,11703.998152
1379868464,2264.723642412,11703.998152
1379868764,1899.9490333413328,11703.998152
1379869064,1759.5010555173335,11703.998152
1379869364,1841.4290425813333,11703.998152
1379869664,2253.01964426,11703.998152
1379869964,1383.022448294667,11703.998152
1379870264,1384.9731146533334,11703.998152
1379870564,1423.9864418266668,11703.998152
1379870864,1595.6450813893334,11703.998152
1379871164,2325.1942995306667,11703.998152
1379871464,1940.913026873333,11703.998152
1379871765,2089.1636701320003,11703.998152
1379872065,2005.2850167093327,11703.998152
1379872365,2180.844988989333,11703.998152
1379872665,1761.4517218760002,11703.998152
1379872965,2297.884970509333,11703.998152
1379873265,1550.77975514,11703.998152
1379873565,1634.6584085626666,11703.998152
1379873865,1769.2543873106667,11703.998152
1379874165,1700.9810647573331,11703.998152
1379874465,1767.303720952,11703.998152
1379874765,2042.347677524,11703.998152
1379875065,1938.962360514667,11703.998152
1379875365,1927.2583623626667,11703.998152
1379875665,1780.958385462667,11703.998152
1379875965,1599.5464141066668,11703.998152
1379876265,1677.573068453333,11703.998152
1379876565,2262.7729760533334,11703.998152
1379876865,1211.363808732,11703.998152
1379877165,1199.65981058,11703.998152
1379877465,1357.663785632,11703.998152
1379877765,1459.0984362826669,11703.998152
1379878065,1876.541037037333,11703.998152
1379878365,1874.5903706786664,11703.998152
1379878665,1644.411740356,11703.998152
1379878965,1726.33972742,11703.998152
1379879265,1857.0343734506664,11703.998152
1379879565,1621.003744052,11703.998152
1379879865,1585.891749596,11703.998152
1379880165,2533.915599908,11703.998152
1379880465,2011.1370157853328,11703.998152
1379880765,1736.0930592133332,11703.998152
1379881066,1589.7930823133331,11703.998152
1379881366,1821.9223789946668,11703.998152
1379881666,1133.3371543853334,11703.998152
1379881966,1681.4744011706666,11703.998152
1379882266,1574.1877514439998,11703.998152
1379882566,1745.8463910066669,11703.998152
1379882866,2005.2850167093327,11703.998152
1379883166,1860.9357061680005,11703.998152
1379883466,1451.2957708479998,11703.998152
1379883766,1938.962360514667,11703.998152
1379884066,1219.1664741666668,11703.998152
1379884366,1396.677112805333,11703.998152
1379884666,1621.003744052,11703.998152
1379884966,2198.400986217333,11703.998152
1379885266,1669.770403018667,11703.998152
1379885566,2305.687635944,11703.998152
1379885866,1622.9544104106667,11703.998152
1379886166,1675.622402094667,11703.998152
1379886466,1790.711717256,11703.998152
1379886766,1775.1063863866668,11703.998152
1379887066,1700.9810647573331,11703.998152
1379887367,2346.651629476,11703.998152
1379887667,1652.214405790667,11703.998152
1379887968,1907.751698776,11703.998152
1379888268,1794.613049973333,11703.998152
1379888568,1423.9864418266668,11703.998152
1379888868,1482.5064325866667,11703.998152
1379889168,1915.5543642106668,11703.998152
1379889468,1162.5971497653334,11703.998152
1379889768,1168.4491488413337,11703.998152
1379890068,1176.251814276,11703.998152
1379890368,1207.462476014667,11703.998152
1379890668,1275.735798568,11703.998152
1379890968,2052.101009317333,11703.998152
1379891268,1238.673137753333,11703.998152
1379891568,1131.3864880266667,11703.998152
1379891868,1223.0678068839998,11703.998152
1379892168,1494.210430738667,11703.998152
1379892468,1285.4891303613333,11703.998152
1379892768,1398.20977923,11703.998152
1379893068,1726.33972742,11703.998152
1379893368,2077.45967198,11703.998152
1379893668,1942.8636932320003,11703.998152
1379893968,2221.8089825213333,11703.998152
1379894268,3306.37947794,11703.998152
1379894568,1872.63970432,11703.998152
1379894868,3320.0341424506664,11703.998152
1379895168,963.6291811813334,11703.998152
1379895468,1084.5704954186665,11703.998152
1379895768,996.7905092786666,11703.998152
1379896068,1199.65981058,11703.998152
1379896368,1400.5784455226667,11703.998152
1379896668,1533.223757912,11703.998152
1379896968,1476.6544335106666,11703.998152
1379897268,1228.91980596,11703.998152
1379897568,885.6025268346666,11703.998152
1379897868,1053.35983368,11703.998152
1379898168,1408.3811109573332,11703.998152
1379898468,1853.1330407333328,11703.998152
1379898768,1324.5024575346667,11703.998152
1379899068,1595.6450813893334,11703.998152
1379899368,1601.497080465333,11703.998152
1379899668,1357.663785632,11703.998152
1379899968,1464.950435358667,11703.998152
1379900268,1363.5157847080002,11703.998152
1379900568,1334.255789328,11703.998152
1379900868,1375.21978286,11703.998152
1379901168,1845.3303752986667,11703.998152
1379901468,1344.0091211213332,11703.998152
1379901768,1841.4290425813333,11703.998152
1379902068,1767.303720952,11703.998152
1379902368,1619.0530776933333,11703.998152
1379902668,955.8265157466666,11703.998152
1379902969,1078.7184963426666,11703.998152
1379903269,739.3025499346666,11703.998152
1379903569,873.8985286826667,11703.998152
1379903869,731.4998845,11703.998152
1379904169,928.5171867253332,11703.998152
1379904469,743.2038826520001,11703.998152
1379904769,735.4012172173335,11703.998152
1379905069,674.9305600986667,11703.998152
1379905369,930.467853084,11703.998152
1379905669,676.8812264573334,11703.998152
1379905969,672.97989374,11703.998152
1379906269,788.0692089013334,11703.998152
1379906569,749.0558817280001,11703.998152
1379906869,827.0825360746667,11703.998152
1379907169,1004.5931747133334,11703.998152
1379907469,676.8812264573334,11703.998152
1379907769,893.4051922693334,11703.998152
1379908069,918.763854932,11703.998152
1379908369,706.1412218373334,11703.998152
1379908669,856.3425314546666,11703.998152
1379908969,717.8452199893334,11703.998152
1379909269,715.8945536306667,11703.998152
1379909569,672.97989374,11703.998152
1379909869,727.5985517826666,11703.998152
1379910169,713.943887272,11703.998152
1379910469,696.3878900440001,11703.998152
1379910769,686.6345582506666,11703.998152
1379911069,680.7825591746666,11703.998152
1379911369,717.8452199893334,11703.998152
1379911669,743.2038826520001,11703.998152
1379911969,721.7465527066665,11703.998152
1379912269,678.831892816,11703.998152
1379912569,733.4505508586667,11703.998152
1379912869,671.0292273813334,11703.998152
1379913169,678.831892816,11703.998152
1379913469,871.947862324,11703.998152
1379913770,717.8452199893334,11703.998152
1379914070,694.4372236853333,11703.998152
1379914370,741.2532162933334,11703.998152
1379914670,934.3691858013334,11703.998152
1379914970,951.9251830293332,11703.998152
1379915270,909.0105231386666,11703.998152
1379915570,901.207857704,11703.998152
1379915870,905.1091904213332,11703.998152
1379916170,955.8265157466666,11703.998152
1379916470,916.8131885733336,11703.998152
1379916770,920.7145212906668,11703.998152
1379917070,866.0958632480001,11703.998152
1379917370,875.8491950413332,11703.998152
1379917670,881.7011941173333,11703.998152
1379917970,946.0731839533332,11703.998152
1379918270,1256.2291349813331,11703.998152
1379918570,1704.882397474667,11703.998152
1379918870,893.4051922693334,11703.998152
1379919170,897.3065249866667,11703.998152
1379919470,858.2931978133333,11703.998152
1379919770,1094.323827212,11703.998152
1379920070,981.1851784093332,11703.998152
1379920370,1033.8531700933336,11703.998152
1379920670,975.3331793333334,11703.998152
1379920970,949.9745166706668,11703.998152
1379921270,914.8625222146668,11703.998152
1379921570,907.05985678,11703.998152
1379921870,1006.543841072,11703.998152
1379922170,914.8625222146668,11703.998152
1379922471,940.2211848773331,11703.998152
1379922771,924.615854008,11703.998152
1379923071,924.615854008,11703.998152
1379923371,1082.61982906,11703.998152
1379923671,1135.287820744,11703.998152
1379923971,969.4811802573332,11703.998152
1379924271,940.2211848773331,11703.998152
1379924571,1254.2784686226669,11703.998152
1379924871,1443.493105413333,11703.998152
1379925171,1525.421092477333,11703.998152
1379925471,1513.7170943253334,11703.998152
1379925771,1304.995793948,11703.998152
1379926071,1195.7584778626667,11703.998152
1379926371,1150.8931516133334,11703.998152
1379926671,1390.8251137293337,11703.998152
1379926971,1954.567691384,11703.998152
1379927271,2846.022217294667,11703.998152
1379927571,3698.463416032,11703.998152
1379927871,2672.412911373334,11703.998152
1379928171,1225.0184732426667,11703.998152
1379928471,1462.999769,11703.998152
1379928771,983.135844768,11703.998152
1379929071,1106.027825364,11703.998152
1379929371,3733.575410488,11703.998152
1379929671,4745.971250635999,11703.998152
1379929971,4521.6446193893335,11703.998152
1379930271,4022.274031570667,11703.998152
1379930571,4125.65934858,11703.998152
1379930871,1858.985039809333,11703.998152
1379931171,397.935937168,11703.998152
1379931471,378.42927358133335,11703.998152
1379931771,421.343933472,11703.998152
1379932071,487.6665896666667,11703.998152
1379932371,415.491934396,11703.998152
1379932671,397.935937168,11703.998152
1379932971,407.6892689613333,11703.998152
1379933271,384.2812726573333,11703.998152
1379933571,397.935937168,11703.998152
1379933871,386.231939016,11703.998152
1379934171,622.2625684146667,11703.998152
1379934471,534.4825822746666,11703.998152
1379934771,413.5412680373333,11703.998152
1379935071,372.5772745053333,11703.998152
1379935371,433.04793162400006,11703.998152
1379935671,395.9852708093333,11703.998152
1379935971,380.37993994,11703.998152
1379936271,384.2812726573333,11703.998152
1379936571,378.42927358133335,11703.998152
1379936871,395.9852708093333,11703.998152
1379937171,378.42927358133335,11703.998152
1379937472,417.4426007546667,11703.998152
1379937772,423.2945998306667,11703.998152
1379938072,415.491934396,11703.998152
1379938372,392.083938092,11703.998152
1379938672,497.41992146000007,11703.998152
1379938972,1425.9371081853333,11703.998152
1379939272,401.8372698853333,11703.998152
1379939572,425.2452661893333,11703.998152
1379939872,372.5772745053333,11703.998152
1379940172,382.3306062986667,11703.998152
1379940472,407.6892689613333,11703.998152
1379940772,411.5906016786667,11703.998152
1379941072,415.491934396,11703.998152
1379941372,415.491934396,11703.998152
1379941672,364.7746090706667,11703.998152
1379941972,403.787936244,11703.998152
1379942272,388.18260537466665,11703.998152
1379942572,546.1865804266668,11703.998152
1379942872,567.6439103719999,11703.998152
1379943172,399.8866035266667,11703.998152
1379943472,401.8372698853333,11703.998152
1379943772,403.787936244,11703.998152
1379944072,366.72527542933335,11703.998152
1379944372,411.5906016786667,11703.998152
1379944672,370.6266081466667,11703.998152
1379944972,690.535890968,11703.998152
1379945272,630.0652338493334,11703.998152
1379945572,364.7746090706667,11703.998152
1379945872,388.18260537466665,11703.998152
1379946172,395.9852708093333,11703.998152
1379946472,378.42927358133335,11703.998152
1379946772,657.3745628706665,11703.998152
1379947072,429.14659890666667,11703.998152
1379947372,392.083938092,11703.998152
1379947672,401.8372698853333,11703.998152
1379947972,440.85059705866666,11703.998152
1379948272,1626.855743128,11703.998152
1379948572,977.283845692,11703.998152
1379948872,2961.111532456,11703.998152
1379949172,442.8012634173333,11703.998152
1379949472,417.4426007546667,11703.998152
1379949772,392.083938092,11703.998152
1379950072,395.9852708093333,11703.998152
1379950372,1008.4945074306668,11703.998152
1379950673,1086.5211617773334,11703.998152
1379950973,423.2945998306667,11703.998152
1379951273,380.37993994,11703.998152
1379951573,397.935937168,11703.998152
1379951873,343.3172791253333,11703.998152
1379952173,801.723873412,11703.998152
1379952473,790.0198752599999,11703.998152
1379952773,364.7746090706667,11703.998152
1379953073,405.7386026026667,11703.998152
1379953373,355.0212772773333,11703.998152
1379953673,395.9852708093333,11703.998152
1379953973,764.6612125973334,11703.998152
1379954273,548.1372467853333,11703.998152
1379954573,329.66261461466667,11703.998152
1379954873,372.5772745053333,11703.998152
1379955173,466.2092597213333,11703.998152
1379955473,407.6892689613333,11703.998152
1379955773,1168.4491488413337,11703.998152
1379956073,2276.427640564,11703.998152
1379956373,366.72527542933335,11703.998152
1379956673,405.7386026026667,11703.998152
1379956973,372.5772745053333,11703.998152
1379957273,380.37993994,11703.998152
1379957573,1423.9864418266668,11703.998152
1379957873,3563.867437284,11703.998152
1379958173,2188.647654424,11703.998152
1379958473,1529.3224251946667,11703.998152
1379958773,1663.9184039426668,11703.998152
1379959073,1632.707742204,11703.998152
1379959373,2180.844988989333,11703.998152
1379959674,2847.9728836533336,11703.998152
1379959974,2089.1636701320003,11703.998152
1379960273,3066.447515824,11703.998152
1379960573,3017.6808568573338,11703.998152
1379960873,2689.968908601333,11703.998152
1379961173,3483.8901165786665,11703.998152
1379961473,2957.2101997386662,11703.998152
1379961773,2943.555535228,11703.998152
1379962073,3479.9887838613336,11703.998152
1379962373,2914.295539848,11703.998152
1379962673,2988.420861477334,11703.998152
1379962973,2319.3423004546667,11703.998152
1379963273,944.1225175946668,11703.998152
1379963573,1086.5211617773334,11703.998152
1379963873,1589.7930823133331,11703.998152
1379964173,1669.770403018667,11703.998152
1379964473,2149.6343272506665,11703.998152
1379964773,2594.3862570266665,11703.998152
1379965073,2908.443540772,11703.998152
1379965373,2578.7809261573334,11703.998152
1379965673,2418.8262847466667,11703.998152
1379965974,2475.395609148,11703.998152
1379966274,2834.3182191426667,11703.998152
1379966574,3661.400755217334,11703.998152
1379966874,3074.2501812586665,11703.998152
1379967174,1094.323827212,11703.998152
1379967474,1180.1531469933334,11703.998152
1379967774,1320.6011248173336,11703.998152
1379968074,1777.057052745333,11703.998152
1379968374,2910.3942071306665,11703.998152
1379968674,1818.0210462773327,11703.998152
1379968974,1576.1384178026667,11703.998152
1379969274,1193.807811504,11703.998152
1379969574,1256.2291349813331,11703.998152
1379969874,1166.4984824826668,11703.998152
1379970174,1738.043725572,11703.998152
1379970474,1355.7131192733332,11703.998152
1379970774,1566.3850860093332,11703.998152
1379971074,1279.6371312853332,11703.998152
1379971374,1281.587797644,11703.998152
1379971674,1704.882397474667,11703.998152
1379971974,2336.898297682667,11703.998152
1379972274,1468.851768076,11703.998152
1379972574,1461.049102641333,11703.998152
1379972875,1743.895724648,11703.998152
1379973175,1691.227732964,11703.998152
1379973475,1328.403790252,11703.998152
1379973779,1638.55974128,11703.998152
1379974079,926.5665203666666,11703.998152
1379974379,1189.9064787866666,11703.998152
1379974679,1361.5651183493333,11703.998152
1379974979,1168.4491488413337,11703.998152
1379975279,1047.507834604,11703.998152
1379975579,1607.3490795413331,11703.998152
1379975879,1482.5064325866667,11703.998152
1379976179,1872.63970432,11703.998152
1379976479,1478.6050998693331,11703.998152
1379976779,1236.7224713946669,11703.998152
1379977079,1509.815761608,11703.998152
1379977379,3224.451490876,11703.998152
1379977679,2290.0823050746667,11703.998152
1379977979,1794.613049973333,11703.998152
1379978279,1724.3890610613337,11703.998152
1379978579,1464.950435358667,11703.998152
1379978879,1851.1823743746668,11703.998152
1379979179,1808.267714484,11703.998152
1379979479,1747.797057365333,11703.998152
1379979779,1870.6890379613333,11703.998152
1379980079,2210.104984369333,11703.998152
1379980379,2512.4582699626662,11703.998152
1379980679,2668.511578656,11703.998152
1379980979,2641.202249634667,11703.998152
1379981279,3702.3647487493336,11703.998152
1379981579,1915.5543642106668,11703.998152
1379981879,1911.6530314933327,11703.998152
1379982179,1498.1117634560003,11703.998152
1379982479,2284.2303059986666,11703.998152
1379982779,2214.006317086667,11703.998152
1379983079,2038.446344806667,11703.998152
1379983379,2483.1982745826667,11703.998152
1379983679,1905.801032417333,11703.998152
1379983979,1868.7383716026668,11703.998152
1379984279,1985.7783531226669,11703.998152
1379984579,2147.6836608920003,11703.998152
1379984880,1716.586395626667,11703.998152
1379985180,1654.1650721493334,11703.998152
1379985480,1804.3663817666668,11703.998152
1379985780,2272.526307846667,11703.998152
1379986080,2108.6703337186664,11703.998152
1379986380,2194.4996535,11703.998152
1379986680,1925.307696004,11703.998152
1379986980,1804.3663817666668,11703.998152
1379987280,2032.5943457306669,11703.998152
1379987580,1669.770403018667,11703.998152
1379987880,1182.103813352,11703.998152
1379988180,1509.815761608,11703.998152
1379988480,1084.5704954186665,11703.998152
1379988780,1377.1704492186668,11703.998152
1379989080,1749.7477237239998,11703.998152
1379989380,1673.671735736,11703.998152
1379989680,1876.541037037333,11703.998152
1379989980,2112.571666436,11703.998152
1379990280,1860.9357061680005,11703.998152
1379990580,2922.098205282666,11703.998152
1379990880,2744.587566644,11703.998152
1379991180,2580.731592516,11703.998152
1379991480,2293.983637792,11703.998152
1379991780,2611.9422542546668,11703.998152
1379992080,2557.323596212,11703.998152
1379992380,2155.4863263266666,11703.998152
1379992680,2420.7769511053334,11703.998152
1379992980,2114.5223327946665,11703.998152
1379993280,1697.0797320400002,11703.998152
1379993580,1894.0970342653336,11703.998152
1379993880,1583.9410832373333,11703.998152
1379994180,1615.151744976,11703.998152
1379994480,1422.035775468,11703.998152
1379994780,1336.206455686667,11703.998152
1379995080,1299.143794872,11703.998152
1379995380,1482.5064325866667,11703.998152
1379995680,1503.963762532,11703.998152
1379995980,2013.087682144,11703.998152
1379996280,1966.271689536,11703.998152
1379996580,1845.3303752986667,11703.998152
1379996880,2237.414313390667,11703.998152
1379997180,2463.691610996,11703.998152
1379997480,2372.0102921386665,11703.998152
1379997780,2331.046298606667,11703.998152
1379998080,1535.1744242706668,11703.998152
1379998380,1453.2464372066668,11703.998152
1379998680,2059.903674752,11703.998152
1379998980,2451.987612844,11703.998152
1379999280,2167.1903244786668,11703.998152
1379999580,2091.1143364906666,11703.998152
1379999880,2471.494276430666,11703.998152
1380000180,2132.0783300226667,11703.998152
1380000480,1849.231708016,11703.998152
1380000780,1660.0170712253332,11703.998152
1380001080,1825.823711712,11703.998152
1380001380,1718.5370619853334,11703.998152
1380001680,2424.6782838226663,11703.998152
1380001980,2297.884970509333,11703.998152
1380002280,2278.378306922667,11703.998152
1380002581,2128.1769973053333,11703.998152
1380002881,2171.091657196,11703.998152
1380003181,2120.3743318706665,11703.998152
1380003481,2180.844988989333,11703.998152
1380003781,2134.0289963813334,11703.998152
1380004081,2288.131638716,11703.998152
1380004381,2393.467622084,11703.998152
1380004681,2467.5929437133336,11703.998152
1380004981,2046.2490102413333,11703.998152
1380005281,1449.3451044893332,11703.998152
1380005581,1550.77975514,11703.998152
1380005881,1697.0797320400002,11703.998152
1380006181,1299.143794872,11703.998152
1380006481,1636.609074921333,11703.998152
1380006781,1884.343702472,11703.998152
1380007081,1851.1823743746668,11703.998152
1380007381,1759.5010555173335,11703.998152
1380007681,1708.783730192,11703.998152
1380007981,1792.6623836146669,11703.998152
1380008281,2576.8302597986667,11703.998152
1380008581,1689.2770666053332,11703.998152
1380008881,2151.584993609333,11703.998152
1380009181,1802.415715408,11703.998152
1380009481,1665.8690703013333,11703.998152
1380009781,1880.4423697546663,11703.998152
1380010081,1634.6584085626666,11703.998152
1380010381,1624.9050767693334,11703.998152
1380010681,1648.313073073333,11703.998152
1380010981,1585.891749596,11703.998152
1380011281,1640.5104076386667,11703.998152
1380011581,1211.363808732,11703.998152
1380011881,1254.2784686226669,11703.998152
1380012181,1225.0184732426667,11703.998152
1380012481,1076.767829984,11703.998152
1380012781,1057.2611663973332,11703.998152
1380013081,1100.175826288,11703.998152
1380013381,1242.5744704706667,11703.998152
1380013681,1244.5251368293334,11703.998152
1380013981,1193.807811504,11703.998152
1380014281,1225.0184732426667,11703.998152
1380014581,1347.9104538386666,11703.998152
1380014881,1338.1571220453332,11703.998152
1380015181,1384.9731146533334,11703.998152
1380015482,1437.6411063373334,11703.998152
1380015782,1414.233110033333,11703.998152
1380016082,1544.9277560639998,11703.998152
1380016382,1398.627779164,11703.998152
1380016682,1585.891749596,11703.998152
1380016982,1059.211832756,11703.998152
1380017282,1509.815761608,11703.998152
1380017582,1451.2957708479998,11703.998152
1380017882,1747.797057365333,11703.998152
1380018182,1632.707742204,11703.998152
1380018482,2149.6343272506665,11703.998152
1380018782,2789.452892893334,11703.998152
1380019082,2481.247608224,11703.998152
1380019382,2758.2422311546666,11703.998152
1380019682,2968.9141978906664,11703.998152
1380019982,2411.0236193120004,11703.998152
1380020282,1894.0970342653336,11703.998152
1380020582,2280.3289732813337,11703.998152
1380020882,1886.2943688306664,11703.998152
1380021182,2764.0942302306667,11703.998152
1380021482,2859.6768818053333,11703.998152
1380021782,2379.8129575733333,11703.998152
1380022082,2126.2263309466666,11703.998152
1380022382,1890.195701548,11703.998152
1380022682,1410.3317773160002,11703.998152
1380022982,1502.0130961733332,11703.998152
1380023283,1394.726446446667,11703.998152
1380023583,1650.263739432,11703.998152
1380023883,1743.895724648,11703.998152
1380024183,1816.0703799186667,11703.998152
1380024483,2046.2490102413333,11703.998152
1380024786,1650.263739432,11703.998152
1380025086,1539.075756988,11703.998152
1380025386,2206.203651652,11703.998152
1380025686,1488.3584316626666,11703.998152
1380025986,1312.7984593826666,11703.998152
1380026286,1384.9731146533334,11703.998152
1380026586,1466.9011017173334,11703.998152
1380026886,1464.950435358667,11703.998152
1380027186,1500.062429814667,11703.998152
1380027486,1396.677112805333,11703.998152
1380027786,1347.9104538386666,11703.998152
1380028086,1455.1971035653332,11703.998152
1380028386,1490.3090980213333,11703.998152
1380028686,1519.5690934013337,11703.998152
1380028986,1652.214405790667,11703.998152
1380029286,1544.9277560639998,11703.998152
1380029586,1338.1571220453332,11703.998152
1380029887,1291.3411294373334,11703.998152
1380030187,1412.2824436746669,11703.998152
1380030487,1361.5651183493333,11703.998152
1380030787,1318.650458458667,11703.998152
1380031087,1113.8304907986667,11703.998152
1380031387,1425.9371081853333,11703.998152
1380031687,1375.21978286,11703.998152
1380031987,1345.95978748,11703.998152
1380032287,1353.7624529146667,11703.998152
1380032587,1392.775780088,11703.998152
1380032887,1449.3451044893332,11703.998152
1380033187,1765.3530545933331,11703.998152
1380033487,1607.3490795413331,11703.998152
1380033787,2512.4582699626662,11703.998152
1380034087,2660.7089132213337,11703.998152
1380034387,2570.9782607226666,11703.998152
1380034687,2370.0596257800003,11703.998152
1380034987,3680.907418804,11703.998152
1380035287,2695.8209076773333,11703.998152
1380035587,2801.1568910453334,11703.998152
1380035887,992.8891765613334,11703.998152
1380036187,988.9878438439998,11703.998152
1380036487,1580.03975052,11703.998152
1380036787,2122.324998229333,11703.998152
1380037087,2122.324998229333,11703.998152
1380037387,1490.3090980213333,11703.998152
1380037688,1541.026423346667,11703.998152
1380037988,1843.37970894,11703.998152
1380038288,2030.643679372,11703.998152
1380038588,2116.472999153333,11703.998152
1380038888,1617.1024113346668,11703.998152
1380039188,1342.0584547626668,11703.998152
1380039488,425.2452661893333,11703.998152
1380039788,407.6892689613333,11703.998152
1380040088,407.6892689613333,11703.998152
1380040388,909.0105231386666,11703.998152
1380040688,585.1999076,11703.998152
1380040988,411.5906016786667,11703.998152
1380041288,433.04793162400006,11703.998152
1380041588,382.3306062986667,11703.998152
1380041888,421.343933472,11703.998152
1380042188,1215.2651414493332,11703.998152
1380042488,2457.83961192,11703.998152
1380042788,2483.1982745826667,11703.998152
1380043088,2128.1769973053333,11703.998152
1380043388,983.135844768,11703.998152
1380043688,417.4426007546667,11703.998152
1380043988,1642.4610739973332,11703.998152
1380044288,3364.8994687,11703.998152
1380044588,1790.711717256,11703.998152
1380044888,1818.0210462773327,11703.998152
1380045188,1741.9450582893332,11703.998152
1380045488,1529.3224251946667,11703.998152
1380045788,2165.23965812,11703.998152
1380046088,3559.966104566666,11703.998152
1380046388,1677.573068453333,11703.998152
1380046688,2095.015669208,11703.998152
1380046988,2087.213003773333,11703.998152
1380047288,2095.015669208,11703.998152
1380047588,2773.847562024,11703.998152
1380047888,2331.046298606667,11703.998152
1380048188,1851.1823743746668,11703.998152
1380048488,2044.298343882667,11703.998152
1380048788,2024.791680296,11703.998152
1380049088,2524.162268114667,11703.998152
1380049388,3156.1781683226664,11703.998152
1380049688,2787.502226534667,11703.998152
1380049989,3739.427409564,11703.998152
1380050289,3226.4021572346664,11703.998152
1380050589,2959.1608660973334,11703.998152
1380050889,1896.047700624,11703.998152
1380051189,2009.1863494266668,11703.998152
1380051489,1716.586395626667,11703.998152
1380051789,1539.075756988,11703.998152
1380052089,1330.3544566106668,11703.998152
1380052389,1474.703767152,11703.998152
1380052689,1654.1650721493334,11703.998152
1380052989,2594.3862570266665,11703.998152
1380053289,2069.6570065453334,11703.998152
1380053589,2098.9170019253334,11703.998152
1380053889,1490.3090980213333,11703.998152
1380054189,2059.903674752,11703.998152
1380054489,2091.1143364906666,11703.998152
1380054789,2758.2422311546666,11703.998152
1380055089,1921.4063632866664,11703.998152
1380055389,1636.609074921333,11703.998152
1380055689,1546.8784224226663,11703.998152
1380055989,1779.0077191039998,11703.998152
1380056289,2385.6649566493334,11703.998152
1380056589,2666.5609122973337,11703.998152
1380056889,1691.227732964,11703.998152
1380057189,1531.2730915533332,11703.998152
1380057489,1299.143794872,11703.998152
1380057789,1507.8650952493333,11703.998152
1380058089,1860.9357061680005,11703.998152
1380058390,2212.055650728,11703.998152
1380058690,2161.3383254026667,11703.998152
1380058990,1747.797057365333,11703.998152
1380059290,1798.514382690667,11703.998152
1380059589,1658.0664048666667,11703.998152
1380059889,1396.677112805333,11703.998152
1380060190,2073.558339262667,11703.998152
1380060490,2110.621000077333,11703.998152
1380060791,1847.2810416573327,11703.998152
1380061091,1722.4383947026663,11703.998152
1380061391,1472.753100793333,11703.998152
1380061691,1480.555766228,11703.998152
1380061991,1763.402388234667,11703.998152
1380062291,1316.6997921,11703.998152
1380062591,1437.6411063373334,11703.998152
1380062891,1254.2784686226669,11703.998152
1380063191,1347.9104538386666,11703.998152
1380063491,1377.1704492186668,11703.998152
1380063791,2247.167645184,11703.998152
1380064091,2042.347677524,11703.998152
1380064391,1617.1024113346668,11703.998152
1380064691,1533.223757912,11703.998152
1380064991,1492.2597643800002,11703.998152
1380065291,2567.0769280053337,11703.998152
1380065591,2894.7888762613334,11703.998152
1380065891,1931.15969508,11703.998152
1380066191,3179.5861646266667,11703.998152
1380066491,3684.808751521333,11703.998152
1380066791,3694.5620833146654,11703.998152
1380067091,2982.5688624013337,11703.998152
1380067391,2721.1795703400003,11703.998152
1380067691,2941.604868869334,11703.998152
1380067991,1779.0077191039998,11703.998152
1380068291,3084.003513052,11703.998152
1380068591,2510.507603604,11703.998152
1380068891,2492.951606376,11703.998152
1380069192,1652.214405790667,11703.998152
1380069492,1250.377135905333,11703.998152
1380069792,1677.573068453333,11703.998152
1380070092,1312.7984593826666,11703.998152
1380070392,1379.1211155773333,11703.998152
1380070692,2087.213003773333,11703.998152
1380070992,2069.6570065453334,11703.998152
1380071292,1264.031800416,11703.998152
1380071592,1316.6997921,11703.998152
1380071892,1459.0984362826669,11703.998152
1380072192,1812.169047201333,11703.998152
1380072492,1287.43979672,11703.998152
1380072792,1548.8290887813332,11703.998152
1380073092,1767.303720952,11703.998152
1380073392,2054.051675676,11703.998152
1380073692,2483.1982745826667,11703.998152
1380073992,2896.73954262,11703.998152
1380074292,2368.1089594213336,11703.998152
1380074592,2709.475572188,11703.998152
1380074892,2241.315646108,11703.998152
1380075192,2174.992989913333,11703.998152
1380075492,2508.5569372453333,11703.998152
1380075792,3123.016840225333,11703.998152
1380076092,3417.567460384,11703.998152
1380076392,1977.975687688,11703.998152
1380076692,1550.77975514,11703.998152
1380076992,2112.571666436,11703.998152
1380077292,3103.5101766386665,11703.998152
1380077592,3550.2127727733337,11703.998152
1380077892,1942.8636932320003,11703.998152
1380078192,2130.127663664,11703.998152
1380078492,1751.6983900826665,11703.998152
1380078792,1613.2010786173332,11703.998152
1380079092,1648.313073073333,11703.998152
1380079392,1730.2410601373333,11703.998152
1380079693,2231.5623143146668,11703.998152
1380079993,2688.0182422426665,11703.998152
1380080293,1779.0077191039998,11703.998152
1380080593,924.615854008,11703.998152
1380080893,1277.6864649266668,11703.998152
1380081193,2526.1129344733336,11703.998152
1380081493,2344.700963117333,11703.998152
1380081793,2522.211601756,11703.998152
1380082093,1935.061027797333,11703.998152
1380082393,3000.124859629334,11703.998152
1380082693,2939.6542025106664,11703.998152
1380082993,2972.815530608,11703.998152
1380083293,3427.3207921773337,11703.998152
1380083593,2732.8835684920004,11703.998152
1380083893,1821.9223789946668,11703.998152
1380084193,2032.5943457306669,11703.998152
1380084493,2317.391634096,11703.998152
1380084793,2719.2289039813336,11703.998152
1380085093,2779.6995611,11703.998152
1380085393,2705.5742394706667,11703.998152
1380085693,2828.466220066666,11703.998152
1380085993,3119.115507508,11703.998152
1380086293,2886.986210826666,11703.998152
1380086593,3281.020815277333,11703.998152
1380086893,2496.8529390933336,11703.998152
1380087193,2541.718265342666,11703.998152
1380087493,3253.711486256,11703.998152
1380087793,2918.1968725653337,11703.998152
1380088093,2028.6930130133333,11703.998152
1380088394,1675.622402094667,11703.998152
1380088694,2303.7369695853336,11703.998152
1380088994,1581.9904168786668,11703.998152
1380089294,936.31985216,11703.998152
1380089594,821.2305369986666,11703.998152
1380089894,1626.855743128,11703.998152
1380090194,1810.2183808426664,11703.998152
1380090494,1394.726446446667,11703.998152
1380090794,1535.1744242706668,11703.998152
1380091094,2069.6570065453334,11703.998152
1380091394,1946.7650259493328,11703.998152
1380091694,2167.1903244786668,11703.998152
1380091994,2104.769001001333,11703.998152
1380092294,1654.1650721493334,11703.998152
1380092594,1449.3451044893332,11703.998152
1380092894,1665.8690703013333,11703.998152
1380093194,1660.0170712253332,11703.998152
1380093494,1759.5010555173335,11703.998152
1380093794,1771.2050536693332,11703.998152
1380094094,1907.751698776,11703.998152
1380094394,1905.801032417333,11703.998152
1380094694,1710.7343965506668,11703.998152
1380094994,417.4426007546667,11703.998152
1380095294,440.85059705866666,11703.998152
1380095594,415.491934396,11703.998152
1380095894,438.8999307,11703.998152
1380096194,983.135844768,11703.998152
1380096494,499.3705878186667,11703.998152
1380096794,422.17993334,11703.998152
1380097094,438.8999307,11703.998152
1380097394,436.9492643413333,11703.998152
1380097694,419.39326711333325,11703.998152
1380097994,427.195932548,11703.998152
1380098294,413.5412680373333,11703.998152
1380098594,448.6532624933333,11703.998152
1380098895,438.8999307,11703.998152
1380099195,423.2945998306667,11703.998152
1380099495,433.04793162400006,11703.998152
1380099795,388.18260537466665,11703.998152
1380100095,411.5906016786667,11703.998152
1380100395,425.2452661893333,11703.998152
1380100695,426.35993268,11703.998152
1380100995,1771.2050536693332,11703.998152
1380101295,2691.91957496,11703.998152
1380101595,436.9492643413333,11703.998152
1380101895,413.5412680373333,11703.998152
1380102195,934.3691858013334,11703.998152
1380102495,1650.263739432,11703.998152
1380102795,1353.7624529146667,11703.998152
1380103095,772.4638780319999,11703.998152
1380103395,854.391865096,11703.998152
1380103695,1392.775780088,11703.998152
1380103995,1535.1744242706668,11703.998152
1380104295,1683.425067529333,11703.998152
1380104595,1632.707742204,11703.998152
1380104895,1683.425067529333,11703.998152
1380105195,1712.6850629093333,11703.998152
1380105495,2972.815530608,11703.998152
1380105795,1855.083707092,11703.998152
1380106095,2881.134211750666,11703.998152
1380106395,797.8225406946667,11703.998152
1380106696,388.18260537466665,11703.998152
1380106996,645.6705647186667,11703.998152
1380107296,520.8279177640001,11703.998152
1380107596,390.1332717333333,11703.998152
1380107896,355.0212772773333,11703.998152
1380108196,425.2452661893333,11703.998152
1380108496,452.55459521066666,11703.998152
1380108795,456.455927928,11703.998152
1380109095,444.751929776,11703.998152
1380109395,464.25859336266666,11703.998152
1380109695,475.96259151466666,11703.998152
1380109995,462.307927004,11703.998152
1380110295,452.55459521066666,11703.998152
1380110595,470.1105924386666,11703.998152
1380110896,464.25859336266666,11703.998152
1380111196,448.6532624933333,11703.998152
1380111496,655.4238965119999,11703.998152
1380111796,1318.650458458667,11703.998152
1380112096,462.307927004,11703.998152
1380112396,369.92994159,11703.998152
1380112696,355.0212772773333,11703.998152
1380112996,218.47463217066667,11703.998152
1380113296,193.115969508,11703.998152
1380113596,193.115969508,11703.998152
1380113896,219.44996535,11703.998152
1380114196,251.635960268,11703.998152
1380114496,212.62263309466667,11703.998152
1380114796,208.72130037733336,11703.998152
1380115096,217.35996568,11703.998152
1380115396,458.4065942866668,11703.998152
1380115696,317.95861646266667,11703.998152
1380115996,206.77063401866667,11703.998152
1380116296,187.26397043200004,11703.998152
1380116596,198.967968584,11703.998152
1380116896,210.671966736,11703.998152
1380117196,206.77063401866667,11703.998152
1380117496,214.57329945333333,11703.998152
1380117796,778.315877108,11703.998152
1380118096,236.0306293986667,11703.998152
1380118396,204.81996766,11703.998152
1380118696,226.27729760533333,11703.998152
1380118996,206.77063401866667,11703.998152
1380119297,204.81996766,11703.998152
1380119597,542.2852477093332,11703.998152
1380119897,197.0173022253333,11703.998152
1380120197,226.27729760533333,11703.998152
1380120497,187.26397043200004,11703.998152
1380120797,499.3705878186667,11703.998152
1380121097,1260.1304676986667,11703.998152
1380121397,2348.6022958346666,11703.998152
1380121697,2139.880995457333,11703.998152
1380121997,218.47463217066667,11703.998152
1380122297,187.26397043200004,11703.998152
1380122597,249.68529390933327,11703.998152
1380122897,224.32663124666664,11703.998152
1380123197,961.6785148226668,11703.998152
1380123497,909.0105231386666,11703.998152
1380123797,191.1653031493333,11703.998152
1380124097,189.21463679066667,11703.998152
1380124397,216.52396581200003,11703.998152
1380124697,191.1653031493333,11703.998152
1380124997,842.687866944,11703.998152
1380125297,409.63993532,11703.998152
1380125597,197.0173022253333,11703.998152
1380125897,204.81996766,11703.998152
1380126197,193.115969508,11703.998152
1380126497,197.0173022253333,11703.998152
1380126797,665.1772283053334,11703.998152
1380127097,356.971943636,11703.998152
1380127398,259.4386257026667,11703.998152
1380127698,195.06663586666664,11703.998152
1380127998,200.91863494266664,11703.998152
1380128298,222.375964888,11703.998152
1380128598,1226.9691396013334,11703.998152
1380128898,2048.1996766,11703.998152
1380129198,216.52396581200003,11703.998152
1380129498,216.52396581200003,11703.998152
1380129798,224.32663124666664,11703.998152
1380130098,179.46130499733334,11703.998152
1380130398,1554.6810878573335,11703.998152
1380130698,3593.127432664,11703.998152
1380130998,696.3878900440001,11703.998152
1380131298,214.57329945333333,11703.998152
1380131598,195.06663586666664,11703.998152
1380131898,165.80664048666665,11703.998152
1380132198,1556.631754216,11703.998152
1380132498,1184.0544797106668,11703.998152
1380132798,866.0958632480001,11703.998152
1380133098,1094.323827212,11703.998152
1380133398,819.27987064,11703.998152
1380133698,830.983868792,11703.998152
1380133998,2034.545012089333,11703.998152
1380134298,1250.377135905333,11703.998152
1380134598,425.2452661893333,11703.998152
1380134898,429.14659890666667,11703.998152
1380135198,376.4786072226667,11703.998152
1380135498,540.3345813506667,11703.998152
1380135798,2354.4542949106667,11703.998152
1380136099,1045.5571682453333,11703.998152
1380136399,1782.9090518213332,11703.998152
1380136699,1946.7650259493328,11703.998152
1380136999,1976.0250213293327,11703.998152
1380137299,1942.8636932320003,11703.998152
1380137599,3320.0341424506664,11703.998152
1380137899,2356.4049612693334,11703.998152
1380138199,1367.4171174253331,11703.998152
1380138499,1340.1077884039998,11703.998152
1380138799,1749.7477237239998,11703.998152
1380139099,1841.4290425813333,11703.998152
1380139399,2943.555535228,11703.998152
1380139699,2647.0542487106663,11703.998152
1380139999,1693.1783993226668,11703.998152
1380140299,1240.623804112,11703.998152
1380140599,1107.9784917226666,11703.998152
1380140899,1037.7545028106667,11703.998152
1380141199,1858.985039809333,11703.998152
1380141499,992.8891765613334,11703.998152
1380141799,758.8092135213333,11703.998152
1380142099,1794.613049973333,11703.998152
1380142399,1681.4744011706666,11703.998152
1380142699,1810.2183808426664,11703.998152
1380142999,2340.7996304,11703.998152
1380143299,1252.327802264,11703.998152
1380143599,1068.9651645493332,11703.998152
1380143899,918.763854932,11703.998152
1380144199,1353.7624529146667,11703.998152
1380144499,1240.623804112,11703.998152
1380144799,1796.563716332,11703.998152
1380145099,1462.999769,11703.998152
1380145399,1505.9144288906668,11703.998152
1380145699,1755.5997228,11703.998152
1380145999,1392.775780088,11703.998152
1380146299,2112.571666436,11703.998152
1380146600,2342.7502967586665,11703.998152
1380146900,1661.967737584,11703.998152
1380147200,1464.950435358667,11703.998152
1380147500,1256.2291349813331,11703.998152
1380147800,1515.667760684,11703.998152
1380148100,1482.5064325866667,11703.998152
1380148400,1607.3490795413331,11703.998152
1380148700,1342.0584547626668,11703.998152
1380149000,1219.1664741666668,11703.998152
1380149300,1747.797057365333,11703.998152
1380149600,1661.967737584,11703.998152
1380149900,1494.210430738667,11703.998152
1380150200,2210.104984369333,11703.998152
1380150500,1320.6011248173336,11703.998152
1380150800,1201.6104769386668,11703.998152
1380151100,1324.5024575346667,11703.998152
1380151400,1293.291795796,11703.998152
1380151700,1238.673137753333,11703.998152
1380152000,1332.3051229693333,11703.998152
1380152300,1849.231708016,11703.998152
1380152600,1597.595747748,11703.998152
1380152901,1800.4650490493334,11703.998152
1380153201,2104.769001001333,11703.998152
1380153501,1860.9357061680005,11703.998152
1380153801,2824.5648873493337,11703.998152
1380154101,3409.764794949334,11703.998152
1380154401,1702.9317311160005,11703.998152
1380154701,2178.894322630667,11703.998152
1380155001,1751.6983900826665,11703.998152
1380155301,3214.6981590826663,11703.998152
1380155601,2594.3862570266665,11703.998152
1380155901,3286.872814353333,11703.998152
1380156201,3509.248779241333,11703.998152
1380156501,3329.787474244,11703.998152
1380156801,3374.6528004933334,11703.998152
1380157101,3909.135382768,11703.998152
1380157401,4234.896664665333,11703.998152
1380157701,3805.7500657586666,11703.998152
1380158001,3918.888714561334,11703.998152
1380158301,3191.290162778667,11703.998152
1380158601,3550.2127727733337,11703.998152
1380158901,3920.83938092,11703.998152
1380159201,3751.131407716,11703.998152
1380159501,3080.102180334666,11703.998152
1380159801,3236.1554890280004,11703.998152
1380160101,2945.506201586666,11703.998152
1380160401,3273.2181498426667,11703.998152
1380160701,3994.9647025493337,11703.998152
1380161001,4285.613989990667,11703.998152
1380161301,4151.018011242667,11703.998152
1380161601,3292.7248134293336,11703.998152
1380161901,2925.999538,11703.998152
1380162201,2980.6181960426666,11703.998152
1380162501,2738.735567568,11703.998152
1380162802,3300.527478864,11703.998152
1380163102,2937.703536152,11703.998152
1380163402,2986.4701951186667,11703.998152
1380163702,3792.095401248,11703.998152
1380164002,3119.115507508,11703.998152
1380164302,4106.152684993333,11703.998152
1380164602,3515.100778317333,11703.998152
1380164902,3794.0460676066655,11703.998152
1380165202,3799.898066682667,11703.998152
1380165502,2857.726215446666,11703.998152
1380165802,2598.287589744,11703.998152
1380166102,2756.291564796,11703.998152
1380166402,3281.020815277333,11703.998152
1380166702,3815.503397552,11703.998152
1380167002,3950.0993763,11703.998152
1380167302,4572.361944714667,11703.998152
1380167602,3944.247377224001,11703.998152
1380167902,3817.454063910666,11703.998152
1380168202,2771.896895665333,11703.998152
1380168502,2875.282212674667,11703.998152
1380168802,2916.2462062066666,11703.998152
1380169102,2801.1568910453334,11703.998152
1380169402,2904.5422080546664,11703.998152
1380169702,2965.012865173333,11703.998152
1380170002,2918.1968725653337,11703.998152
1380170302,3360.998135982666,11703.998152
1380170602,3489.7421156546666,11703.998152
1380170902,3390.2581313626665,11703.998152
1380171202,2865.5288808813334,11703.998152
1380171502,3021.5821895746667,11703.998152
1380171802,3058.644850389333,11703.998152
1380172102,2268.624975129333,11703.998152
1380172402,1535.1744242706668,11703.998152
1380172702,1779.0077191039998,11703.998152
1380173002,2038.446344806667,11703.998152
1380173302,1972.1236886120005,11703.998152
1380173602,1925.307696004,11703.998152
1380173902,2001.383683992,11703.998152
1380174202,1991.6303521986667,11703.998152
1380174502,2206.203651652,11703.998152
1380174802,427.195932548,11703.998152
1380175102,245.783961192,11703.998152
1380175402,335.5146136906667,11703.998152
1380175702,257.487959344,11703.998152
1380176002,269.191957496,11703.998152
1380176302,273.0932902133334,11703.998152
1380176602,259.4386257026667,11703.998152
1380176902,228.227963964,11703.998152
1380177202,232.12929668133333,11703.998152
1380177502,230.17863032266663,11703.998152
1380177802,197.0173022253333,11703.998152
1380178102,241.88262847466663,11703.998152
1380178402,302.35328559333334,11703.998152
1380178702,298.451952876,11703.998152
1380179002,343.3172791253333,11703.998152
1380179302,237.98129575733333,11703.998152
1380179602,218.47463217066667,11703.998152
1380179902,263.33995842,11703.998152
1380180202,220.42529852933333,11703.998152
1380180502,245.783961192,11703.998152
1380180802,267.2412911373333,11703.998152
1380181102,243.83329483333333,11703.998152
1380181402,222.375964888,11703.998152
1380181703,237.98129575733333,11703.998152
1380182003,214.57329945333333,11703.998152
1380182303,210.671966736,11703.998152
1380182603,819.27987064,11703.998152
1380182903,232.12929668133333,11703.998152
1380183203,245.783961192,11703.998152
1380183503,321.85994918,11703.998152
1380183803,236.0306293986667,11703.998152
1380184103,195.06663586666664,11703.998152
1380184403,228.227963964,11703.998152
1380184703,198.967968584,11703.998152
1380185003,218.47463217066667,11703.998152
1380185303,226.27729760533333,11703.998152
1380185603,195.06663586666664,11703.998152
1380185903,237.98129575733333,11703.998152
1380186203,257.487959344,11703.998152
1380186503,224.32663124666664,11703.998152
1380186803,236.0306293986667,11703.998152
1380187103,226.27729760533333,11703.998152
1380187403,2110.621000077333,11703.998152
1380187703,2699.722240394666,11703.998152
1380188003,234.07996304,11703.998152
1380188303,210.671966736,11703.998152
1380188603,735.4012172173335,11703.998152
1380188903,419.39326711333325,11703.998152
1380189203,356.971943636,11703.998152
1380189503,236.0306293986667,11703.998152
1380189803,276.99462293066665,11703.998152
1380190103,245.783961192,11703.998152
1380190403,253.58662662666663,11703.998152
1380190703,214.57329945333333,11703.998152
1380191003,243.83329483333333,11703.998152
1380191303,251.635960268,11703.998152
1380191603,218.47463217066667,11703.998152
1380191903,236.0306293986667,11703.998152
1380192203,214.57329945333333,11703.998152
1380192503,232.12929668133333,11703.998152
1380192803,230.17863032266663,11703.998152
1380193103,220.42529852933333,11703.998152
1380193403,434.9985979826667,11703.998152
1380193703,239.931962116,11703.998152
1380194004,228.227963964,11703.998152
1380194304,278.94528928933335,11703.998152
1380194604,222.375964888,11703.998152
1380194904,224.32663124666664,11703.998152
1380195204,214.57329945333333,11703.998152
1380195504,228.227963964,11703.998152
1380195804,198.967968584,11703.998152
1380196104,198.967968584,11703.998152
1380196404,245.783961192,11703.998152
1380196704,232.12929668133333,11703.998152
1380197004,292.5999538,11703.998152
1380197304,331.6132809733333,11703.998152
1380197604,427.195932548,11703.998152
1380197904,594.9532393933333,11703.998152
1380198204,624.2132347733334,11703.998152
1380198504,296.5012865173333,11703.998152
1380198804,249.68529390933327,11703.998152
1380199104,470.1105924386666,11703.998152
1380199404,526.67991684,11703.998152
1380199704,374.5279408640001,11703.998152
1380200004,237.98129575733333,11703.998152
1380200304,232.12929668133333,11703.998152
1380200604,288.6986210826667,11703.998152
1380200904,228.227963964,11703.998152
1380201204,239.931962116,11703.998152
1380201504,197.0173022253333,11703.998152
1380201804,433.04793162400006,11703.998152
1380202104,366.72527542933335,11703.998152
1380202404,450.603928852,11703.998152
1380202704,433.04793162400006,11703.998152
1380203004,403.787936244,11703.998152
1380203304,479.863924232,11703.998152
1380203604,446.7025961346667,11703.998152
1380203904,452.55459521066666,11703.998152
1380204204,893.4051922693334,11703.998152
1380204505,544.235914068,11703.998152
1380204805,477.9132578733333,11703.998152
1380205105,456.455927928,11703.998152
1380205405,454.5052615693333,11703.998152
1380205705,456.455927928,11703.998152
1380206005,731.4998845,11703.998152
1380206305,472.0612587973334,11703.998152
1380206605,401.65993658,11703.998152
1380206904,454.5052615693333,11703.998152
1380207204,413.5412680373333,11703.998152
1380207504,1745.8463910066669,11703.998152
1380207804,1217.215807808,11703.998152
1380208104,4373.3939761306665,11703.998152
1380208404,2292.0329714333334,11703.998152
1380208704,2233.512980673333,11703.998152
1380209004,594.9532393933333,11703.998152
1380209304,226.27729760533333,11703.998152
1380209604,949.9745166706668,11703.998152
1380209905,881.7011941173333,11703.998152
1380210205,234.07996304,11703.998152
1380210505,280.895955648,11703.998152
1380210805,218.47463217066667,11703.998152
1380211105,257.487959344,11703.998152
1380211405,957.7771821053334,11703.998152
1380211705,374.5279408640001,11703.998152
1380212005,214.57329945333333,11703.998152
1380212305,241.88262847466663,11703.998152
1380212605,216.52396581200003,11703.998152
1380212905,224.32663124666664,11703.998152
1380213205,665.1772283053334,11703.998152
1380213505,403.787936244,11703.998152
1380213805,234.07996304,11703.998152
1380214105,232.12929668133333,11703.998152
1380214405,202.8693013013333,11703.998152
1380214705,212.62263309466667,11703.998152
1380215005,1441.5424390546668,11703.998152
1380215305,1882.393036113333,11703.998152
1380215605,224.32663124666664,11703.998152
1380215905,212.62263309466667,11703.998152
1380216205,224.32663124666664,11703.998152
1380216505,234.07996304,11703.998152
1380216805,1796.563716332,11703.998152
1380217105,3926.691379996,11703.998152
1380217405,758.8092135213333,11703.998152
1380217705,212.62263309466667,11703.998152
1380218005,237.98129575733333,11703.998152
1380218305,204.81996766,11703.998152
1380218605,1492.2597643800002,11703.998152
1380218905,2828.466220066666,11703.998152
1380219205,1412.2824436746669,11703.998152
1380219505,1726.33972742,11703.998152
1380219806,1427.887774544,11703.998152
1380220106,1636.609074921333,11703.998152
1380220406,2487.0996073,11703.998152
1380220706,1293.291795796,11703.998152
1380221006,1630.7570758453332,11703.998152
1380221306,1566.3850860093332,11703.998152
1380221606,1976.0250213293327,11703.998152
1380221906,2087.213003773333,11703.998152
1380222206,2292.0329714333334,11703.998152
1380222506,797.8225406946667,11703.998152
1380222806,1383.022448294667,11703.998152
1380223106,1757.5503891586666,11703.998152
1380223406,1722.4383947026663,11703.998152
1380223706,1888.2450351893333,11703.998152
1380224006,2344.700963117333,11703.998152
1380224306,1630.7570758453332,11703.998152
1380224606,1773.155720028,11703.998152
1380224906,1665.8690703013333,11703.998152
1380225206,1410.3317773160002,11703.998152
1380225506,842.687866944,11703.998152
1380225806,2824.5648873493337,11703.998152
1380226106,3247.85948718,11703.998152
1380226407,1580.03975052,11703.998152
1380226707,1782.9090518213332,11703.998152
1380227007,626.163901132,11703.998152
1380227307,762.7105462386667,11703.998152
1380227607,1599.5464141066668,11703.998152
1380227907,1827.774378070667,11703.998152
1380228207,1983.827686764,11703.998152
1380228507,1896.047700624,11703.998152
1380228807,1909.7023651346667,11703.998152
1380229107,1974.0743549706667,11703.998152
1380229407,2096.966335566667,11703.998152
1380229707,1591.743748672,11703.998152
1380230007,649.571897436,11703.998152
1380230307,491.567922384,11703.998152
1380230607,509.123919612,11703.998152
1380230907,1135.287820744,11703.998152
1380231207,2399.31962116,11703.998152
1380231507,1431.7891072613334,11703.998152
1380231807,912.911855856,11703.998152
1380232107,1125.5344889506666,11703.998152
1380232407,903.1585240626664,11703.998152
1380232707,866.0958632480001,11703.998152
1380233008,1942.8636932320003,11703.998152
1380233308,877.7998613999999,11703.998152
1380233608,1029.951837376,11703.998152
1380233908,1215.2651414493332,11703.998152
1380234208,930.467853084,11703.998152
1380234508,1299.143794872,11703.998152
1380234808,1605.398413182667,11703.998152
1380235108,1146.991818896,11703.998152
1380235408,1371.3184501426667,11703.998152
1380235708,1215.2651414493332,11703.998152
1380236008,1150.8931516133334,11703.998152
1380236308,1217.215807808,11703.998152
1380236608,2073.558339262667,11703.998152
1380236908,1423.9864418266668,11703.998152
1380237208,1262.0811340573334,11703.998152
1380237508,1049.458500962667,11703.998152
1380237808,988.9878438439998,11703.998152
1380238108,1632.707742204,11703.998152
1380238408,1539.075756988,11703.998152
1380238708,1790.711717256,11703.998152
1380239008,1398.627779164,11703.998152
1380239308,1039.7051691693332,11703.998152
1380239608,1244.5251368293334,11703.998152
1380239908,1232.8211386773337,11703.998152
1380240208,3124.967506584,11703.998152
1380240508,5122.449857858667,11703.998152
1380240808,1564.4344196506668,11703.998152
1380241108,708.0918881959999,11703.998152
1380241408,688.5852246093334,11703.998152
1380241708,698.3385564026665,11703.998152
1380242008,747.1052153693335,11703.998152
1380242308,793.9212079773334,11703.998152
1380242608,1201.6104769386668,11703.998152
1380242908,1427.887774544,11703.998152
1380243208,1383.022448294667,11703.998152
1380243508,1644.411740356,11703.998152
1380243808,1935.061027797333,11703.998152
1380244108,2229.611647956,11703.998152
1380244408,1806.317048125333,11703.998152
1380244708,1384.9731146533334,11703.998152
1380245008,1999.4330176333333,11703.998152
1380245308,2020.8903475786667,11703.998152
1380245608,1675.622402094667,11703.998152
1380245908,1496.1610970973334,11703.998152
1380246208,1697.0797320400002,11703.998152
1380246508,1702.9317311160005,11703.998152
1380246808,2015.0383485026668,11703.998152
1380247108,1451.2957708479998,11703.998152
1380247408,1745.8463910066669,11703.998152
1380247708,1324.5024575346667,11703.998152
1380248008,1379.1211155773333,11703.998152
1380248308,1468.851768076,11703.998152
1380248608,1338.1571220453332,11703.998152
1380248908,1363.5157847080002,11703.998152
1380249208,1521.5197597600002,11703.998152
1380249508,1564.4344196506668,11703.998152
1380249808,1790.711717256,11703.998152
1380250109,1433.73977362,11703.998152
1380250409,1827.774378070667,11703.998152
1380250709,1578.0890841613332,11703.998152
1380251009,1383.022448294667,11703.998152
1380251309,1271.834465850667,11703.998152
1380251609,1384.9731146533334,11703.998152
1380251909,1369.3677837839998,11703.998152
1380252209,1624.9050767693334,11703.998152
1380252509,1634.6584085626666,11703.998152
1380252809,1615.151744976,11703.998152
1380253109,1123.583822592,11703.998152
1380253409,1384.9731146533334,11703.998152
1380253709,1753.6490564413334,11703.998152
1380254009,1661.967737584,11703.998152
1380254309,1800.4650490493334,11703.998152
1380254609,1827.774378070667,11703.998152
1380254909,1761.4517218760002,11703.998152
1380255209,1827.774378070667,11703.998152
1380255509,2137.9303290986663,11703.998152
1380255809,2292.0329714333334,11703.998152
1380256109,2303.7369695853336,11703.998152
1380256409,1987.729019481333,11703.998152
1380256709,1741.9450582893332,11703.998152
1380257009,2652.9062477866664,11703.998152
1380257309,2134.0289963813334,11703.998152
1380257610,1806.317048125333,11703.998152
1380257910,2202.302318934667,11703.998152
1380258210,2227.6609815973334,11703.998152
1380258510,3628.23942712,11703.998152
1380258810,2034.545012089333,11703.998152
1380259110,3323.935475168,11703.998152
1380259410,1804.3663817666668,11703.998152
1380259710,2157.4369926853333,11703.998152
1380260010,3378.5541332106664,11703.998152
1380260310,2801.1568910453334,11703.998152
1380260610,2266.674308770667,11703.998152
1380260910,2617.7942533306664,11703.998152
1380261210,4346.084647109334,11703.998152
1380261510,4037.87936244,11703.998152
1380261810,2274.4769742053336,11703.998152
1380262110,1946.7650259493328,11703.998152
1380262410,1550.77975514,11703.998152
1380262710,823.1812033573334,11703.998152
1380263010,1310.847793024,11703.998152
1380263310,2352.503628552,11703.998152
1380263610,2496.8529390933336,11703.998152
1380263910,2393.467622084,11703.998152
1380264210,1976.0250213293327,11703.998152
1380264510,2028.6930130133333,11703.998152
1380264810,1878.491703396,11703.998152
1380265110,1552.7304214986666,11703.998152
1380265410,1642.4610739973332,11703.998152
1380265710,1648.313073073333,11703.998152
1380266010,1749.7477237239998,11703.998152
1380266310,2254.970310618666,11703.998152
1380266610,2836.268885501333,11703.998152
1380266910,2323.243633172,11703.998152
1380267210,2249.118311542667,11703.998152
1380267511,2588.5342579506664,11703.998152
1380267811,2327.144965889333,11703.998152
1380268111,1502.0130961733332,11703.998152
1380268411,1474.703767152,11703.998152
1380268711,1541.026423346667,11703.998152
1380269011,2015.0383485026668,11703.998152
1380269311,1804.3663817666668,11703.998152
1380269611,877.7998613999999,11703.998152
1380269911,754.907880804,11703.998152
1380270211,774.4145443906666,11703.998152
1380270511,1119.6824898746663,11703.998152
1380270811,1279.6371312853332,11703.998152
1380271111,815.3785379226666,11703.998152
1380271411,829.0332024333334,11703.998152
1380271711,1174.3011479173333,11703.998152
1380272011,1357.663785632,11703.998152
1380272311,1511.766427966667,11703.998152
1380272611,1275.735798568,11703.998152
1380272910,1654.1650721493334,11703.998152
1380273210,1872.63970432,11703.998152
1380273510,1769.2543873106667,11703.998152
1380273810,1784.8597181799998,11703.998152
1380274110,1823.8730453533333,11703.998152
1380274411,1857.0343734506664,11703.998152
1380274711,852.4411987373335,11703.998152
1380275011,158.00397505200002,11703.998152
1380275311,156.05330869333335,11703.998152
1380275611,189.21463679066667,11703.998152
1380275911,762.7105462386667,11703.998152
1380276211,185.3133040733333,11703.998152
1380276511,202.8693013013333,11703.998152
1380276811,142.3986441826667,11703.998152
1380277111,193.115969508,11703.998152
1380277411,142.3986441826667,11703.998152
1380277711,154.10264233466668,11703.998152
1380278011,228.227963964,11703.998152
1380278311,210.671966736,11703.998152
1380278611,208.72130037733336,11703.998152
1380278911,300.4026192346667,11703.998152
1380279211,261.3892920613333,11703.998152
1380279511,189.21463679066667,11703.998152
1380279811,503.271920536,11703.998152
1380280111,232.12929668133333,11703.998152
1380280411,136.5466451066667,11703.998152
1380280711,177.51063863866668,11703.998152
1380281011,232.12929668133333,11703.998152
1380281312,181.411971356,11703.998152
1380281612,239.931962116,11703.998152
1380281912,276.99462293066665,11703.998152
1380282212,232.12929668133333,11703.998152
1380282512,273.0932902133334,11703.998152
1380282812,226.27729760533333,11703.998152
1380283112,232.12929668133333,11703.998152
1380283412,286.747954724,11703.998152
1380283712,316.00795010400003,11703.998152
1380284012,314.0572837453333,11703.998152
1380284312,713.943887272,11703.998152
1380284612,368.675941788,11703.998152
1380284912,259.4386257026667,11703.998152
1380285212,405.7386026026667,11703.998152
1380285512,368.675941788,11703.998152
1380285812,376.4786072226667,11703.998152
1380286112,298.451952876,11703.998152
1380286412,228.227963964,11703.998152
1380286712,232.12929668133333,11703.998152
1380287012,259.4386257026667,11703.998152
1380287312,261.3892920613333,11703.998152
1380287612,286.747954724,11703.998152
1380287912,331.6132809733333,11703.998152
1380288212,384.2812726573333,11703.998152
1380288512,237.98129575733333,11703.998152
1380288812,206.77063401866667,11703.998152
1380289112,265.29062477866665,11703.998152
1380289412,206.77063401866667,11703.998152
1380289712,249.68529390933327,11703.998152
1380290012,208.72130037733336,11703.998152
1380290312,319.9092828213333,11703.998152
1380290612,516.9265850466668,11703.998152
1380290913,278.94528928933335,11703.998152
1380291213,239.931962116,11703.998152
1380291513,208.72130037733336,11703.998152
1380291813,191.1653031493333,11703.998152
1380292113,257.487959344,11703.998152
1380292413,487.6665896666667,11703.998152
1380292713,239.931962116,11703.998152
1380293013,216.52396581200003,11703.998152
1380293313,241.88262847466663,11703.998152
1380293613,230.17863032266663,11703.998152
1380293913,1581.9904168786668,11703.998152
1380294213,971.431846616,11703.998152
1380294513,2900.640875337333,11703.998152
1380294813,237.98129575733333,11703.998152
1380295113,167.75730684533335,11703.998152
1380295413,185.3133040733333,11703.998152
1380295713,195.06663586666664,11703.998152
1380296013,891.4545259106666,11703.998152
1380296313,2192.5489871413333,11703.998152
1380296613,2251.0689779013333,11703.998152
1380296913,1580.03975052,11703.998152
1380297213,1148.9424852546667,11703.998152
1380297513,1964.321023177333,11703.998152
1380297813,1894.0970342653336,11703.998152
1380298113,854.391865096,11703.998152
1380298413,909.0105231386666,11703.998152
1380298713,930.467853084,11703.998152
1380299013,1026.0505046586666,11703.998152
1380299313,971.431846616,11703.998152
1380299613,1053.35983368,11703.998152
1380299913,797.8225406946667,11703.998152
1380300213,708.0918881959999,11703.998152
1380300513,575.4465758066667,11703.998152
1380300813,243.83329483333333,11703.998152
1380301113,222.375964888,11703.998152
1380301413,1186.0051460693333,11703.998152
1380301713,957.7771821053334,11703.998152
1380302014,647.6212310773334,11703.998152
1380302314,756.8585471626667,11703.998152
1380302614,138.49731146533333,11703.998152
1380302914,163.855974128,11703.998152
1380303214,1581.9904168786668,11703.998152
1380303514,2327.144965889333,11703.998152
1380303814,1363.5157847080002,11703.998152
1380304114,1277.6864649266668,11703.998152
1380304414,1806.317048125333,11703.998152
1380304714,2145.732994533333,11703.998152
1380305014,2965.012865173333,11703.998152
1380305313,2200.351652576,11703.998152
1380305613,2130.127663664,11703.998152
1380305913,3228.3528235933336,11703.998152
1380306213,1769.2543873106667,11703.998152
1380306513,1533.223757912,11703.998152
1380306813,3126.9181729426664,11703.998152
1380307113,2678.264910449334,11703.998152
1380307413,2453.9382792026668,11703.998152
1380307713,1847.2810416573327,11703.998152
1380308013,1031.9025037346669,11703.998152
1380308314,1207.462476014667,11703.998152
1380308614,1858.985039809333,11703.998152
1380308914,474.011925156,11703.998152
1380309214,544.235914068,11703.998152
1380309514,764.6612125973334,11703.998152
1380309814,778.315877108,11703.998152
1380310114,868.0465296066666,11703.998152
1380310414,1293.291795796,11703.998152
1380310714,694.4372236853333,11703.998152
1380311014,641.7692320013334,11703.998152
1380311314,910.9611894973334,11703.998152
1380311614,1024.0998383,11703.998152
1380311914,979.2345120506668,11703.998152
1380312214,2137.9303290986663,11703.998152
1380312514,1004.5931747133334,11703.998152
1380312814,830.983868792,11703.998152
1380313114,536.4332486333333,11703.998152
1380313414,766.611878956,11703.998152
1380313714,1390.8251137293337,11703.998152
1380314014,1868.7383716026668,11703.998152
1380314314,1262.0811340573334,11703.998152
1380314614,674.9305600986667,11703.998152
1380314914,645.6705647186667,11703.998152
1380315214,489.61725602533335,11703.998152
1380315514,505.2225868946667,11703.998152
1380315814,1135.287820744,11703.998152
1380316114,674.9305600986667,11703.998152
1380316414,723.6972190653333,11703.998152
1380316714,614.45990298,11703.998152
1380317014,834.8852015093335,11703.998152
1380317314,643.71989836,11703.998152
1380317614,1464.950435358667,11703.998152
1380317915,520.8279177640001,11703.998152
1380318215,550.087913144,11703.998152
1380318515,604.7065711866667,11703.998152
1380318815,1068.9651645493332,11703.998152
1380319115,760.7598798800001,11703.998152
1380319415,1595.6450813893334,11703.998152
1380319715,665.1772283053334,11703.998152
1380320015,704.1905554786666,11703.998152
1380320315,979.2345120506668,11703.998152
1380320615,957.7771821053334,11703.998152
1380320915,885.6025268346666,11703.998152
1380321215,1041.655835528,11703.998152
1380321515,713.943887272,11703.998152
1380321815,869.9971959653334,11703.998152
1380322115,1156.7451506893333,11703.998152
1380322415,1369.3677837839998,11703.998152
1380322715,1542.9770897053331,11703.998152
1380323015,2282.27963964,11703.998152
1380323315,1371.3184501426667,11703.998152
1380323615,1262.0811340573334,11703.998152
1380323915,1324.5024575346667,11703.998152
1380324215,1240.623804112,11703.998152
1380324515,1738.043725572,11703.998152
1380324815,1835.5770435053328,11703.998152
1380325115,1558.582420574667,11703.998152
1380325415,1301.0944612306669,11703.998152
1380325715,1420.0851091093334,11703.998152
1380326016,1418.1344427506667,11703.998152
1380326316,1154.7944843306668,11703.998152
1380326616,2730.9329021333338,11703.998152
1380326916,2247.167645184,11703.998152
1380327216,1486.407765304,11703.998152
1380327516,1548.8290887813332,11703.998152
1380327816,1271.834465850667,11703.998152
1380328116,1511.766427966667,11703.998152
1380328416,1455.1971035653332,11703.998152
1380328716,1422.035775468,11703.998152
1380329016,1371.3184501426667,11703.998152
1380329316,1369.3677837839998,11703.998152
1380329616,1176.66981421,11703.998152
1380329916,1306.946460306667,11703.998152
1380330216,1915.5543642106668,11703.998152
1380330516,2013.087682144,11703.998152
1380330816,2235.463647032,11703.998152
1380331116,1749.7477237239998,11703.998152
1380331416,1303.045127589333,11703.998152
1380331716,1490.16976471,11703.998152
1380332016,1505.9144288906668,11703.998152
1380332316,1088.471828136,11703.998152
1380332616,1160.646483406667,11703.998152
1380332916,2083.3116710560003,11703.998152
1380333216,1507.8650952493333,11703.998152
1380333516,1186.0051460693333,11703.998152
1380333816,1554.95975448,11703.998152
1380334116,1022.1491719413336,11703.998152
1380334416,969.4811802573332,11703.998152
1380334716,1178.2024806346667,11703.998152
1380335016,1256.08980167,11703.998152
1380335316,1253.9998019999998,11703.998152
1380335616,1656.1157385079998,11703.998152
1380335916,1344.0091211213332,11703.998152
1380336216,1480.555766228,11703.998152
1380336516,1523.4704261186666,11703.998152
1380336816,1753.6490564413334,11703.998152
1380337116,1806.317048125333,11703.998152
1380337416,2697.771574036,11703.998152
1380337716,1775.1063863866668,11703.998152
1380338016,1414.233110033333,11703.998152
1380338316,1669.770403018667,11703.998152
1380338616,2251.0689779013333,11703.998152
1380338916,1872.63970432,11703.998152
1380339216,1667.81973666,11703.998152
1380339516,1968.2223558946664,11703.998152
1380339816,1886.2943688306664,11703.998152
1380340116,2438.3329483333337,11703.998152
1380340416,2368.1089594213336,11703.998152
1380340716,2578.7809261573334,11703.998152
1380341016,3243.9581544626667,11703.998152
1380341316,2032.5943457306669,11703.998152
1380341616,2009.1863494266668,11703.998152
1380341916,2073.558339262667,11703.998152
1380342216,1683.425067529333,11703.998152
1380342516,1716.586395626667,11703.998152
1380342816,1874.5903706786664,11703.998152
1380343116,2065.755673828,11703.998152
1380343416,2034.545012089333,11703.998152
1380343717,2574.87959344,11703.998152
1380344016,3614.5847626093337,11703.998152
1380344317,3509.248779241333,11703.998152
1380344617,3524.854110110666,11703.998152
1380344917,3926.691379996,11703.998152
1380345217,3152.2768356053334,11703.998152
1380345517,2869.430213598667,11703.998152
1380345817,3082.052846693334,11703.998152
1380346117,3277.11948256,11703.998152
1380346417,3538.508774621333,11703.998152
1380346717,3115.214174790666,11703.998152
1380347017,2116.472999153333,11703.998152
1380347317,1718.5370619853334,11703.998152
1380347617,1663.9184039426668,11703.998152
1380347917,2112.571666436,11703.998152
1380348217,2223.75964888,11703.998152
1380348517,1847.2810416573327,11703.998152
1380348817,2340.7996304,11703.998152
1380349117,2038.446344806667,11703.998152
1380349417,2717.2782376226664,11703.998152
1380349717,2844.071550936,11703.998152
1380350017,1837.527709864,11703.998152
1380350317,1369.3677837839998,11703.998152
1380350617,1264.031800416,11703.998152
1380350917,1184.0544797106668,11703.998152
1380351217,1581.9904168786668,11703.998152
1380351517,1388.8744473706663,11703.998152
1380351817,1780.958385462667,11703.998152
1380352117,2492.951606376,11703.998152
1380352417,2695.8209076773333,11703.998152
1380352717,2609.991587896,11703.998152
1380353017,3290.774147070666,11703.998152
1380353317,2970.8648642493336,11703.998152
1380353617,3598.97943174,11703.998152
1380353917,3152.2768356053334,11703.998152
1380354218,3154.227501964,11703.998152
1380354518,3072.2995149,11703.998152
1380354818,2832.367552784,11703.998152
1380355118,3442.926123046667,11703.998152
1380355418,3343.4421387546668,11703.998152
1380355718,3423.41945946,11703.998152
1380356018,2366.158293062667,11703.998152
1380356318,2637.3009169173333,11703.998152
1380356618,3099.608843921333,11703.998152
1380356918,2826.5155537079995,11703.998152
1380357218,2838.21955186,11703.998152
1380357518,2933.802203434667,11703.998152
1380357818,2844.071550936,11703.998152
1380358118,2617.7942533306664,11703.998152
1380358418,2557.323596212,11703.998152
1380358718,2321.2929668133334,11703.998152
1380359018,2309.5889686613336,11703.998152
1380359318,1855.083707092,11703.998152
1380359618,1527.3717588360005,11703.998152
1380359918,2479.2969418653333,11703.998152
1380360218,2249.118311542667,11703.998152
1380360518,2764.0942302306667,11703.998152
1380360818,3206.895493648,11703.998152
1380361118,2403.2209538773336,11703.998152
1380361418,3370.751467776,11703.998152
1380361718,3795.9967339653335,11703.998152
1380362018,3507.298112882667,11703.998152
1380362318,3228.3528235933336,11703.998152
1380362619,3400.0114631560004,11703.998152
1380362919,3044.990185878667,11703.998152
1380363219,1455.1971035653332,11703.998152
1380363519,1642.4610739973332,11703.998152
1380363819,2600.2382561026666,11703.998152
1380364119,2477.346275506666,11703.998152
1380364419,2976.716863325333,11703.998152
1380364719,2428.57961654,11703.998152
1380365019,2491.000940017333,11703.998152
1380365319,3201.0434945720003,11703.998152
1380365619,3489.7421156546666,11703.998152
1380365919,3665.302087934667,11703.998152
1380366219,3152.2768356053334,11703.998152
1380366519,2071.607672904,11703.998152
1380366819,1962.3703568186663,11703.998152
1380367119,2920.147538924,11703.998152
1380367419,2635.350250558666,11703.998152
1380367719,1338.1571220453332,11703.998152
1380368019,1402.5291118813332,11703.998152
1380368319,1474.703767152,11703.998152
1380368619,1503.963762532,11703.998152
1380368919,1457.147769924,11703.998152
1380369219,1874.5903706786664,11703.998152
1380369519,1131.3864880266667,11703.998152
1380369819,1174.3011479173333,11703.998152
1380370119,1148.9424852546667,11703.998152
1380370419,1225.0184732426667,11703.998152
1380370719,2087.213003773333,11703.998152
1380371019,1262.0811340573334,11703.998152
1380371319,821.2305369986666,11703.998152
1380371619,864.1451968893334,11703.998152
1380371919,793.9212079773334,11703.998152
1380372219,875.8491950413332,11703.998152
1380372519,801.723873412,11703.998152
1380372819,665.1772283053334,11703.998152
1380373119,788.0692089013334,11703.998152
1380373419,1028.0011710173335,11703.998152
1380373719,893.4051922693334,11703.998152
1380374019,721.7465527066665,11703.998152
1380374319,501.3212541773333,11703.998152
1380374619,1152.843817972,11703.998152
1380374919,926.5665203666666,11703.998152
1380375219,1006.543841072,11703.998152
1380375519,963.6291811813334,11703.998152
1380375819,1328.403790252,11703.998152
1380376119,2364.207626704,11703.998152
1380376419,1896.047700624,11703.998152
1380376720,1152.843817972,11703.998152
1380377020,1049.458500962667,11703.998152
1380377320,1129.435821668,11703.998152
1380377620,1492.2597643800002,11703.998152
1380377920,1127.485155309333,11703.998152
1380378220,946.0731839533332,11703.998152
1380378520,805.6252061293334,11703.998152
1380378820,797.8225406946667,11703.998152
1380379120,977.283845692,11703.998152
1380379420,901.207857704,11703.998152
1380379720,922.6651876493332,11703.998152
1380380020,2018.93968122,11703.998152
1380380320,618.3612356973334,11703.998152
1380380620,985.0865111266666,11703.998152
1380380920,1525.421092477333,11703.998152
1380381220,1474.703767152,11703.998152
1380381520,838.7865342266665,11703.998152
1380381820,885.6025268346666,11703.998152
1380382120,686.6345582506666,11703.998152
1380382420,1221.1171405253333,11703.998152
1380382720,1135.287820744,11703.998152
1380383020,780.2665434666666,11703.998152
1380383320,778.315877108,11703.998152
1380383620,873.8985286826667,11703.998152
1380383920,864.1451968893334,11703.998152
1380384220,1041.655835528,11703.998152
1380384520,850.4905323786667,11703.998152
1380384820,834.8852015093335,11703.998152
1380385120,1236.7224713946669,11703.998152
1380385420,645.6705647186667,11703.998152
1380385720,639.8185656426666,11703.998152
1380386020,990.9385102026666,11703.998152
1380386320,559.8412449373333,11703.998152
1380386620,795.871874336,11703.998152
1380386920,518.8772514053334,11703.998152
1380387220,440.85059705866666,11703.998152
1380387520,386.231939016,11703.998152
1380387820,1574.1877514439998,11703.998152
1380388120,971.431846616,11703.998152
1380388420,801.723873412,11703.998152
1380388720,848.5398660200001,11703.998152
1380389020,797.8225406946667,11703.998152
1380389320,883.651860476,11703.998152
1380389620,1507.8650952493333,11703.998152
1380389920,1585.891749596,11703.998152
1380390220,1583.9410832373333,11703.998152
1380390520,1006.543841072,11703.998152
1380390820,622.2625684146667,11703.998152
1380391121,468.15992608,11703.998152
1380391421,955.8265157466666,11703.998152
1380391721,708.0918881959999,11703.998152
1380392021,390.1332717333333,11703.998152
1380392321,386.231939016,11703.998152
1380392621,624.2132347733334,11703.998152
1380392921,1170.3998152,11703.998152
1380393221,866.0958632480001,11703.998152
1380393521,684.6838918919999,11703.998152
1380393821,702.23988912,11703.998152
1380394121,645.6705647186667,11703.998152
1380394421,538.383914992,11703.998152
1380394721,645.6705647186667,11703.998152
1380395021,1287.43979672,11703.998152
1380395321,573.495909448,11703.998152
1380395621,688.5852246093334,11703.998152
1380395921,1045.5571682453333,11703.998152
1380396221,973.3825129746666,11703.998152
1380396521,758.8092135213333,11703.998152
1380396821,1427.887774544,11703.998152
1380397121,665.1772283053334,11703.998152
1380397421,692.4865573266667,11703.998152
1380397721,885.6025268346666,11703.998152
1380398021,1267.9331331333333,11703.998152
1380398321,1068.9651645493332,11703.998152
1380398621,2102.818334642667,11703.998152
1380398921,1379.1211155773333,11703.998152
1380399221,1127.485155309333,11703.998152
1380399521,1162.5971497653334,11703.998152
1380399821,1053.35983368,11703.998152
1380400121,1193.807811504,11703.998152
1380400421,2007.235683068,11703.998152
1380400721,1225.0184732426667,11703.998152
1380401021,1234.7718050360002,11703.998152
1380401321,1857.0343734506664,11703.998152
1380401621,2861.627548164,11703.998152
1380401921,2914.295539848,11703.998152
1380402221,2672.412911373334,11703.998152
1380402521,1412.2824436746669,11703.998152
1380402821,1018.247839224,11703.998152
1380403121,973.3825129746666,11703.998152
1380403421,949.9745166706668,11703.998152
1380403721,967.5305138986664,11703.998152
1380404022,1851.1823743746668,11703.998152
1380404322,1141.13981982,11703.998152
1380404622,1186.0051460693333,11703.998152
1380404922,1106.027825364,11703.998152
1380405222,1291.3411294373334,11703.998152
1380405522,1578.0890841613332,11703.998152
1380405822,2217.907649804,11703.998152
1380406122,1792.6623836146669,11703.998152
1380406422,1546.8784224226663,11703.998152
1380406722,2366.158293062667,11703.998152
1380407022,2812.8608891973336,11703.998152
1380407322,2797.255558328,11703.998152
1380407622,3677.0060860866665,11703.998152
1380407922,3265.415484408,11703.998152
1380408222,3552.1634391320003,11703.998152
1380408522,3511.1994456,11703.998152
1380408822,3513.150111958667,11703.998152
1380409122,2717.2782376226664,11703.998152
1380409422,2336.898297682667,11703.998152
1380409722,2165.23965812,11703.998152
1380410022,1847.2810416573327,11703.998152
1380410322,2442.2342810506666,11703.998152
1380410622,2360.306293986667,11703.998152
1380410922,1917.5050305693333,11703.998152
1380411222,1654.1650721493334,11703.998152
1380411522,1306.946460306667,11703.998152
1380411822,1658.0664048666667,11703.998152
1380412122,1422.035775468,11703.998152
1380412422,626.163901132,11703.998152
1380412722,487.6665896666667,11703.998152
1380413022,2167.1903244786668,11703.998152
1380413322,1952.6170250253333,11703.998152
1380413622,1150.8931516133334,11703.998152
1380413923,405.7386026026667,11703.998152
1380414223,319.9092828213333,11703.998152
1380414523,737.351883576,11703.998152
1380414823,403.787936244,11703.998152
1380415123,752.9572144453334,11703.998152
1380415423,1771.2050536693332,11703.998152
1380415723,2680.215576808,11703.998152
1380416023,2824.5648873493337,11703.998152
1380416323,4102.251352276,11703.998152
1380416623,4570.411278356,11703.998152
1380416923,4330.47931624,11703.998152
1380417223,4705.007257104,11703.998152
1380417523,3396.1101304386666,11703.998152
1380417823,2145.732994533333,11703.998152
1380418123,1804.3663817666668,11703.998152
1380418423,1710.7343965506668,11703.998152
1380418723,1531.2730915533332,11703.998152
1380419023,1640.5104076386667,11703.998152
1380419323,1757.5503891586666,11703.998152
1380419623,1999.4330176333333,11703.998152
1380419923,2153.535659968,11703.998152
1380420223,2457.83961192,11703.998152
1380420523,1890.195701548,11703.998152
1380420823,1800.4650490493334,11703.998152
1380421123,1394.726446446667,11703.998152
1380421423,1568.3357523680002,11703.998152
1380421723,1650.263739432,11703.998152
1380422023,1837.527709864,11703.998152
1380422323,1240.623804112,11703.998152
1380422623,1855.083707092,11703.998152
1380422923,1447.394438130667,11703.998152
1380423223,1447.394438130667,11703.998152
1380423523,1277.6864649266668,11703.998152
1380423823,1615.151744976,11703.998152
1380424123,1833.626377146667,11703.998152
1380424423,1896.047700624,11703.998152
1380424723,2192.5489871413333,11703.998152
1380425023,2830.4168864253334,11703.998152
1380425323,2584.632925233333,11703.998152
1380425623,3004.0261923466664,11703.998152
1380425923,2317.391634096,11703.998152
1380426223,2184.746321706667,11703.998152
1380426523,2340.7996304,11703.998152
1380426823,2475.395609148,11703.998152
1380427124,2900.640875337333,11703.998152
1380427424,2061.854341110667,11703.998152
1380427724,2046.2490102413333,11703.998152
1380428024,2842.120884577333,11703.998152
1380428324,3600.930098098667,11703.998152
1380428624,3054.7435176720005,11703.998152
1380428924,3310.2808106573334,11703.998152
1380429224,3023.532855933334,11703.998152
1380429524,2567.0769280053337,11703.998152
1380429824,1782.9090518213332,11703.998152
1380430124,1950.6663586666668,11703.998152
1380430424,3183.487497344,11703.998152
1380430724,3600.930098098667,11703.998152
1380431024,3491.6927820133337,11703.998152
1380431324,4209.538002002667,11703.998152
1380431624,3682.8580851626666,11703.998152
1380431924,2565.1262616466665,11703.998152
1380432224,2812.8608891973336,11703.998152
1380432524,2580.731592516,11703.998152
1380432824,3146.424836529334,11703.998152
1380433124,3665.302087934667,11703.998152
1380433424,3417.567460384,11703.998152
1380433724,2746.5382330026664,11703.998152
1380434024,3573.620769077333,11703.998152
1380434324,3458.5314539160004,11703.998152
1380434624,3614.5847626093337,11703.998152
1380434924,3429.271458536,11703.998152
1380435224,2551.471597136,11703.998152
1380435524,2430.5302828986664,11703.998152
1380435824,2436.3822819746665,11703.998152
1380436124,2307.638302302667,11703.998152
1380436424,1976.0250213293327,11703.998152
1380436724,2446.1356137679995,11703.998152
1380437024,2137.9303290986663,11703.998152
1380437324,1909.7023651346667,11703.998152
1380437625,1566.3850860093332,11703.998152
1380437925,1509.815761608,11703.998152
1380438225,1771.2050536693332,11703.998152
1380438525,1804.3663817666668,11703.998152
1380438825,1617.1024113346668,11703.998152
1380439125,1535.1744242706668,11703.998152
1380439425,1383.022448294667,11703.998152
1380439725,1441.5424390546668,11703.998152
1380440025,1819.971712636,11703.998152
1380440325,1728.2903937786668,11703.998152
1380440625,2473.4449427893337,11703.998152
1380440925,1860.9357061680005,11703.998152
1380441225,1886.2943688306664,11703.998152
1380441525,2095.015669208,11703.998152
1380441825,2331.046298606667,11703.998152
1380442125,1609.2997459,11703.998152
1380442425,1437.6411063373334,11703.998152
1380442725,1260.1304676986667,11703.998152
1380443025,1264.031800416,11703.998152
1380443325,1244.5251368293334,11703.998152
1380443625,1195.7584778626667,11703.998152
1380443925,928.5171867253332,11703.998152
1380444225,1024.0998383,11703.998152
1380444525,1197.7091442213334,11703.998152
1380444825,1392.775780088,11703.998152
1380445125,1365.4664510666669,11703.998152
1380445425,1240.623804112,11703.998152
1380445725,1028.0011710173335,11703.998152
1380446026,1092.3731608533335,11703.998152
1380446326,907.05985678,11703.998152
1380446626,916.8131885733336,11703.998152
1380446926,832.9345351506666,11703.998152
1380447226,1090.4224944946666,11703.998152
1380447526,1137.2384871026668,11703.998152
1380447826,1490.3090980213333,11703.998152
1380448126,1798.514382690667,11703.998152
1380448426,1234.7718050360002,11703.998152
1380448726,1548.8290887813332,11703.998152
1380449026,1597.595747748,11703.998152
1380449326,893.4051922693334,11703.998152
1380449626,1029.951837376,11703.998152
1380449926,836.835867868,11703.998152
1380450226,1084.5704954186665,11703.998152
1380450526,1476.6544335106666,11703.998152
1380450826,1453.2464372066668,11703.998152
1380451126,1443.493105413333,11703.998152
1380451426,1658.0664048666667,11703.998152
1380451726,1550.77975514,11703.998152
1380452026,1414.233110033333,11703.998152
1380452326,1511.766427966667,11703.998152
1380452626,1730.2410601373333,11703.998152
1380452926,1894.0970342653336,11703.998152
1380453226,1921.4063632866664,11703.998152
1380453526,1839.4783762226664,11703.998152
1380453826,1993.5810185573328,11703.998152
1380454126,1189.9064787866666,11703.998152
1380454426,850.4905323786667,11703.998152
1380454726,667.127894664,11703.998152
1380455026,415.491934396,11703.998152
1380455326,542.2852477093332,11703.998152
1380455627,702.23988912,11703.998152
1380455927,891.4545259106666,11703.998152
1380456227,1182.103813352,11703.998152
1380456527,1568.3357523680002,11703.998152
1380456827,1431.7891072613334,11703.998152
1380457127,1191.857145145333,11703.998152
1380457427,1002.6425083546668,11703.998152
1380457727,1423.9864418266668,11703.998152
1380458027,3193.240829137334,11703.998152
1380458327,3466.3341193506662,11703.998152
1380458627,3698.463416032,11703.998152
1380458927,3163.9808337573336,11703.998152
1380459227,2081.361004697333,11703.998152
1380459527,1363.5157847080002,11703.998152
1380459827,1874.5903706786664,11703.998152
1380460127,581.2985748826667,11703.998152
1380460427,692.4865573266667,11703.998152
1380460727,1462.999769,11703.998152
1380461027,2249.118311542667,11703.998152
1380461327,2368.1089594213336,11703.998152
1380461627,1999.4330176333333,11703.998152
1380461927,1226.9691396013334,11703.998152
1380462227,1314.749125741333,11703.998152
1380462527,2128.1769973053333,11703.998152
1380462828,1671.7210693773334,11703.998152
1380463128,2272.526307846667,11703.998152
1380463428,1833.626377146667,11703.998152
1380463728,1736.0930592133332,11703.998152
1380464028,1739.9943919306668,11703.998152
1380464328,1944.8143595906668,11703.998152
1380464628,1661.967737584,11703.998152
1380464928,1406.4304445986668,11703.998152
1380465228,1593.694415030667,11703.998152
1380465528,1363.5157847080002,11703.998152
1380465828,996.7905092786666,11703.998152
1380466128,926.5665203666666,11703.998152
1380466428,1104.0771590053334,11703.998152
1380466728,1244.5251368293334,11703.998152
1380467028,1535.1744242706668,11703.998152
1380467328,1061.1624991146666,11703.998152
1380467628,458.4065942866668,11703.998152
1380467928,1669.770403018667,11703.998152
1380468228,838.7865342266665,11703.998152
1380468528,2007.235683068,11703.998152
1380468828,1868.7383716026668,11703.998152
1380469128,2217.907649804,11703.998152
1380469428,1929.2090287213337,11703.998152
1380469728,1652.214405790667,11703.998152
1380470028,1152.843817972,11703.998152
1380470328,1585.891749596,11703.998152
1380470628,2087.213003773333,11703.998152
1380470928,1720.487728344,11703.998152
1380471228,2050.1503429586664,11703.998152
1380471528,1207.462476014667,11703.998152
1380471828,953.875849388,11703.998152
1380472128,462.307927004,11703.998152
1380472428,702.23988912,11703.998152
1380472728,491.567922384,11703.998152
1380473028,503.271920536,11703.998152
1380473328,454.5052615693333,11703.998152
1380473628,452.55459521066666,11703.998152
1380473928,456.455927928,11703.998152
1380474228,1427.887774544,11703.998152
1380474529,2057.953008393333,11703.998152
1380474829,450.603928852,11703.998152
1380475129,514.975918688,11703.998152
1380475429,462.307927004,11703.998152
1380475729,409.63993532,11703.998152
1380476029,1808.267714484,11703.998152
1380476329,2340.7996304,11703.998152
1380476629,1580.03975052,11703.998152
1380476929,518.8772514053334,11703.998152
1380477229,497.41992146000007,11703.998152
1380477529,481.8145905906667,11703.998152
1380477829,1724.3890610613337,11703.998152
1380478129,2723.1302366986665,11703.998152
1380478429,2442.2342810506666,11703.998152
1380478729,1769.2543873106667,11703.998152
1380479029,1156.7451506893333,11703.998152
1380479329,1361.5651183493333,11703.998152
1380479629,2288.131638716,11703.998152
1380479929,2235.463647032,11703.998152
1380480229,1700.9810647573331,11703.998152
1380480529,1716.586395626667,11703.998152
1380480829,1638.55974128,11703.998152
1380481129,1669.770403018667,11703.998152
1380481429,2348.6022958346666,11703.998152
1380481729,795.871874336,11703.998152
1380482030,739.3025499346666,11703.998152
1380482330,1000.691841996,11703.998152
1380482630,801.723873412,11703.998152
1380482930,805.6252061293334,11703.998152
1380483230,1648.313073073333,11703.998152
1380483530,1016.2971728653334,11703.998152
1380483830,907.05985678,11703.998152
1380484129,946.0731839533332,11703.998152
1380484429,811.4772052053333,11703.998152
1380484730,1441.5424390546668,11703.998152
1380485030,3115.214174790666,11703.998152
1380485330,2323.243633172,11703.998152
1380485630,2401.2702875186665,11703.998152
1380485930,1981.8770204053333,11703.998152
1380486230,2446.1356137679995,11703.998152
1380486530,2674.363577732,11703.998152
1380486830,2951.358200662666,11703.998152
1380487130,1814.11971356,11703.998152
1380487430,1574.1877514439998,11703.998152
1380487730,1453.2464372066668,11703.998152
1380488030,1433.73977362,11703.998152
1380488330,1310.847793024,11703.998152
1380488630,1909.7023651346667,11703.998152
1380488930,1070.915830908,11703.998152
1380489230,793.9212079773334,11703.998152
1380489530,928.5171867253332,11703.998152
1380489830,1297.1931285133332,11703.998152
1380490130,920.7145212906668,11703.998152
1380490430,2052.101009317333,11703.998152
1380490730,1603.447746824,11703.998152
1380491030,2137.9303290986663,11703.998152
1380491330,1640.5104076386667,11703.998152
1380491630,1615.151744976,11703.998152
1380491930,1564.4344196506668,11703.998152
