Timestamp [ms],CPU usage [MHZ],CPU capacity provisioned [MHZ]
1372629804,3866.220722877333,11703.998152
1372630104,3499.495447448,11703.998152
1372630404,3536.5581082626663,11703.998152
1372630704,3519.002111034667,11703.998152
1372631004,4100.300685917333,11703.998152
1372631304,4355.837978902667,11703.998152
1372631604,4529.447284824,11703.998152
1372631904,3762.835405868,11703.998152
1372632204,3702.3647487493336,11703.998152
1372632504,4071.040690537333,11703.998152
1372632804,4174.426007546666,11703.998152
1372633104,4630.8819354746665,11703.998152
1372633404,4724.513920690667,11703.998152
1372633704,3567.768770001333,11703.998152
1372634004,3522.9034437520004,11703.998152
1372634304,3335.63947332,11703.998152
1372634604,4385.097974282667,11703.998152
1372634903,4186.1300056986665,11703.998152
1372635203,3610.683429892,11703.998152
1372635503,3710.167414184,11703.998152
1372635803,3626.288760761333,11703.998152
1372636103,3860.3687238013335,11703.998152
1372636403,3520.952777393333,11703.998152
1372636703,3462.4327866333338,11703.998152
1372637004,4638.684600909333,11703.998152
1372637304,3460.4821202746666,11703.998152
1372637604,3372.7021341346663,11703.998152
1372637904,3335.63947332,11703.998152
1372638204,3540.45944098,11703.998152
1372638504,3702.3647487493336,11703.998152
1372638804,3337.5901396786667,11703.998152
1372639104,3329.787474244,11703.998152
1372639404,3345.392805113334,11703.998152
1372639704,3341.491472396,11703.998152
1372640004,3341.491472396,11703.998152
1372640304,3403.912795873334,11703.998152
1372640604,3390.2581313626665,11703.998152
1372640904,3501.4461138066667,11703.998152
1372641204,3323.935475168,11703.998152
1372641504,3600.930098098667,11703.998152
1372641804,3641.8940916306665,11703.998152
1372642104,3370.751467776,11703.998152
1372642404,3860.3687238013335,11703.998152
1372642704,3823.3060629866654,11703.998152
1372643005,3745.27940864,11703.998152
1372643305,4028.126030646666,11703.998152
1372643605,4507.989954878666,11703.998152
1372643905,4580.164610149333,11703.998152
1372644205,3708.216747825333,11703.998152
1372644505,3836.960727497333,11703.998152
1372644805,4234.896664665333,11703.998152
1372645105,4213.43933472,11703.998152
1372645405,3852.5660583666654,11703.998152
1372645705,4578.213943790666,11703.998152
1372646005,5100.992527913333,11703.998152
1372646305,4931.284554709334,11703.998152
1372646605,4316.824651729334,11703.998152
1372646905,4449.469964118667,11703.998152
1372647205,3836.960727497333,11703.998152
1372647505,3733.575410488,11703.998152
1372647805,4422.160635097333,11703.998152
1372648105,3308.3301442986667,11703.998152
1372648405,1640.5104076386667,11703.998152
1372648705,491.567922384,11703.998152
1372649005,647.6212310773334,11703.998152
1372649305,807.5758724880001,11703.998152
1372649605,1377.1704492186668,11703.998152
1372649905,1031.9025037346669,11703.998152
1372650205,1765.3530545933331,11703.998152
1372650505,961.6785148226668,11703.998152
1372650805,1043.6065018866666,11703.998152
1372651105,979.2345120506668,11703.998152
1372651405,1076.767829984,11703.998152
1372651705,1059.211832756,11703.998152
1372652006,895.355858628,11703.998152
1372652306,912.911855856,11703.998152
1372652606,918.763854932,11703.998152
1372652906,897.3065249866667,11703.998152
1372653206,998.7411756373334,11703.998152
1372653506,969.4811802573332,11703.998152
1372653806,185.3133040733333,11703.998152
1372654106,282.8466220066667,11703.998152
1372654406,195.06663586666664,11703.998152
1372654706,212.62263309466667,11703.998152
1372655006,212.62263309466667,11703.998152
1372655306,204.81996766,11703.998152
1372655606,187.26397043200004,11703.998152
1372655906,191.1653031493333,11703.998152
1372656206,198.967968584,11703.998152
1372656506,191.1653031493333,11703.998152
1372656806,232.12929668133333,11703.998152
1372657106,310.155951028,11703.998152
1372657406,312.1066173866667,11703.998152
1372657706,306.2546183106667,11703.998152
1372658006,253.58662662666663,11703.998152
1372658306,202.8693013013333,11703.998152
1372658606,187.26397043200004,11703.998152
1372658906,261.3892920613333,11703.998152
1372659206,224.32663124666664,11703.998152
1372659506,228.227963964,11703.998152
1372659806,247.73462755066663,11703.998152
1372660106,214.57329945333333,11703.998152
1372660407,179.46130499733334,11703.998152
1372660707,189.21463679066667,11703.998152
1372661007,197.0173022253333,11703.998152
1372661307,241.88262847466663,11703.998152
1372661607,185.3133040733333,11703.998152
1372661907,630.0652338493334,11703.998152
1372662207,292.5999538,11703.998152
1372662507,245.783961192,11703.998152
1372662807,269.191957496,11703.998152
1372663107,224.32663124666664,11703.998152
1372663407,189.21463679066667,11703.998152
1372663707,189.21463679066667,11703.998152
1372664007,195.06663586666664,11703.998152
1372664307,197.0173022253333,11703.998152
1372664607,195.06663586666664,11703.998152
1372664907,191.1653031493333,11703.998152
1372665207,210.671966736,11703.998152
1372665508,175.55997228,11703.998152
1372665808,671.0292273813334,11703.998152
1372666108,197.0173022253333,11703.998152
1372666408,183.36263771466668,11703.998152
1372666708,181.411971356,11703.998152
1372667008,212.62263309466667,11703.998152
1372667307,191.1653031493333,11703.998152
1372667607,222.375964888,11703.998152
1372667907,187.26397043200004,11703.998152
1372668207,241.88262847466663,11703.998152
1372668507,304.30395195200003,11703.998152
1372668807,228.227963964,11703.998152
1372669107,228.227963964,11703.998152
1372669407,230.17863032266663,11703.998152
1372669707,220.42529852933333,11703.998152
1372670007,278.94528928933335,11703.998152
1372670307,251.635960268,11703.998152
1372670607,1866.787705244,11703.998152
1372670907,2432.4809492573336,11703.998152
1372671207,1295.2424621546668,11703.998152
1372671508,3864.2700565186665,11703.998152
1372671808,4457.272629553333,11703.998152
1372672108,3872.0727219533337,11703.998152
1372672408,2812.8608891973336,11703.998152
1372672708,2869.430213598667,11703.998152
1372673008,2608.040921537334,11703.998152
1372673308,2623.646252406666,11703.998152
1372673608,1663.9184039426668,11703.998152
1372673908,1310.847793024,11703.998152
1372674208,871.947862324,11703.998152
1372674508,813.427871564,11703.998152
1372674808,747.1052153693335,11703.998152
1372675108,557.8905785786667,11703.998152
1372675408,218.47463217066667,11703.998152
1372675708,187.26397043200004,11703.998152
1372676008,226.27729760533333,11703.998152
1372676308,226.27729760533333,11703.998152
1372676608,717.8452199893334,11703.998152
1372676908,275.043956572,11703.998152
1372677208,255.53729298533332,11703.998152
1372677508,805.6252061293334,11703.998152
1372677808,733.4505508586667,11703.998152
1372678108,218.47463217066667,11703.998152
1372678408,234.07996304,11703.998152
1372678708,452.55459521066666,11703.998152
1372679009,1133.3371543853334,11703.998152
1372679309,489.61725602533335,11703.998152
1372679609,440.85059705866666,11703.998152
1372679909,214.57329945333333,11703.998152
1372680209,355.0212772773333,11703.998152
1372680509,216.52396581200003,11703.998152
1372680809,185.3133040733333,11703.998152
1372681109,561.791911296,11703.998152
1372681409,885.6025268346666,11703.998152
1372681709,226.27729760533333,11703.998152
1372682009,282.8466220066667,11703.998152
1372682309,195.06663586666664,11703.998152
1372682609,204.81996766,11703.998152
1372682909,181.411971356,11703.998152
1372683209,294.5506201586667,11703.998152
1372683509,472.0612587973334,11703.998152
1372683809,296.5012865173333,11703.998152
1372684109,228.227963964,11703.998152
1372684409,310.155951028,11703.998152
1372684709,271.1426238546666,11703.998152
1372685009,460.3572606453333,11703.998152
1372685309,263.33995842,11703.998152
1372685609,243.83329483333333,11703.998152
1372685909,241.88262847466663,11703.998152
1372686209,247.73462755066663,11703.998152
1372686509,349.16927820133327,11703.998152
1372686810,528.6305831986666,11703.998152
1372687110,310.155951028,11703.998152
1372687410,711.9932209133334,11703.998152
1372687710,321.85994918,11703.998152
1372688010,257.487959344,11703.998152
1372688310,204.81996766,11703.998152
1372688610,1314.749125741333,11703.998152
1372688910,314.0572837453333,11703.998152
1372689210,444.751929776,11703.998152
1372689510,275.043956572,11703.998152
1372689810,197.0173022253333,11703.998152
1372690110,198.967968584,11703.998152
1372690410,234.07996304,11703.998152
1372690710,187.26397043200004,11703.998152
1372691010,1135.287820744,11703.998152
1372691310,1539.075756988,11703.998152
1372691610,253.58662662666663,11703.998152
1372691910,245.783961192,11703.998152
1372692210,263.33995842,11703.998152
1372692510,224.32663124666664,11703.998152
1372692810,934.3691858013334,11703.998152
1372693110,2024.791680296,11703.998152
1372693410,1913.603697852,11703.998152
1372693710,1496.1610970973334,11703.998152
1372694010,1638.55974128,11703.998152
1372694310,657.3745628706665,11703.998152
1372694610,671.0292273813334,11703.998152
1372694911,977.283845692,11703.998152
1372695211,1084.5704954186665,11703.998152
1372695511,1622.9544104106667,11703.998152
1372695811,2071.607672904,11703.998152
1372696111,314.0572837453333,11703.998152
1372696411,581.2985748826667,11703.998152
1372696711,316.00795010400003,11703.998152
1372697011,175.55997228,11703.998152
1372697311,187.26397043200004,11703.998152
1372697611,243.83329483333333,11703.998152
1372697911,183.36263771466668,11703.998152
1372698211,850.4905323786667,11703.998152
1372698511,649.571897436,11703.998152
1372698811,234.07996304,11703.998152
1372699111,212.62263309466667,11703.998152
1372699411,241.88262847466663,11703.998152
1372699711,271.1426238546666,11703.998152
1372700011,1377.1704492186668,11703.998152
1372700311,3156.1781683226664,11703.998152
1372700611,1792.6623836146669,11703.998152
1372700911,1260.1304676986667,11703.998152
1372701211,916.8131885733336,11703.998152
1372701511,987.0371774853334,11703.998152
1372701811,1517.6184270426666,11703.998152
1372702111,1131.3864880266667,11703.998152
1372702411,669.0785610226666,11703.998152
1372702711,577.3972421653334,11703.998152
1372703011,661.275895588,11703.998152
1372703311,577.3972421653334,11703.998152
1372703611,2260.8223096946667,11703.998152
1372703911,2174.992989913333,11703.998152
1372704211,1519.5690934013337,11703.998152
1372704511,1322.551791176,11703.998152
1372704811,526.67991684,11703.998152
1372705111,953.875849388,11703.998152
1372705411,1860.9357061680005,11703.998152
1372705711,821.2305369986666,11703.998152
1372706011,684.6838918919999,11703.998152
1372706311,1039.7051691693332,11703.998152
1372706611,481.8145905906667,11703.998152
1372706911,1068.9651645493332,11703.998152
1372707211,1976.0250213293327,11703.998152
1372707511,1242.5744704706667,11703.998152
1372707811,1447.394438130667,11703.998152
1372708111,1603.447746824,11703.998152
1372708411,1386.923781012,11703.998152
1372708711,1453.2464372066668,11703.998152
1372709012,2723.1302366986665,11703.998152
1372709312,2379.8129575733333,11703.998152
1372709612,2005.2850167093327,11703.998152
1372709912,881.7011941173333,11703.998152
1372710212,737.351883576,11703.998152
1372710512,1037.7545028106667,11703.998152
1372710812,1125.5344889506666,11703.998152
1372711112,817.3292042813333,11703.998152
1372711412,587.1505739586667,11703.998152
1372711712,514.975918688,11703.998152
1372712012,532.531915916,11703.998152
1372712312,975.3331793333334,11703.998152
1372712612,1018.247839224,11703.998152
1372712912,801.723873412,11703.998152
1372713212,733.4505508586667,11703.998152
1372713512,770.5132116733334,11703.998152
1372713812,879.7505277586667,11703.998152
1372714112,766.611878956,11703.998152
1372714412,1318.650458458667,11703.998152
1372714712,610.5585702626666,11703.998152
1372715012,1123.583822592,11703.998152
1372715312,672.97989374,11703.998152
1372715612,869.9971959653334,11703.998152
1372715912,1168.4491488413337,11703.998152
1372716212,1938.962360514667,11703.998152
1372716512,1145.0411525373331,11703.998152
1372716812,653.4732301533335,11703.998152
1372717112,990.9385102026666,11703.998152
1372717413,421.343933472,11703.998152
1372717713,587.1505739586667,11703.998152
1372718013,905.1091904213332,11703.998152
1372718313,702.23988912,11703.998152
1372718613,466.2092597213333,11703.998152
1372718913,637.867899284,11703.998152
1372719213,635.9172329253333,11703.998152
1372719513,462.307927004,11703.998152
1372719813,942.171851236,11703.998152
1372720113,530.5812495573333,11703.998152
1372720413,528.6305831986666,11703.998152
1372720713,805.6252061293334,11703.998152
1372721013,975.3331793333334,11703.998152
1372721313,868.0465296066666,11703.998152
1372721613,739.3025499346666,11703.998152
1372721913,528.6305831986666,11703.998152
1372722213,202.8693013013333,11703.998152
1372722513,353.0706109186667,11703.998152
1372722813,977.283845692,11703.998152
1372723113,639.8185656426666,11703.998152
1372723413,1991.6303521986667,11703.998152
1372723713,715.8945536306667,11703.998152
1372724013,1505.9144288906668,11703.998152
1372724313,910.9611894973334,11703.998152
1372724613,825.131869716,11703.998152
1372724913,585.1999076,11703.998152
1372725213,452.55459521066666,11703.998152
1372725513,355.0212772773333,11703.998152
1372725813,514.975918688,11703.998152
1372726113,702.23988912,11703.998152
1372726414,1273.7851322093331,11703.998152
1372726714,1599.5464141066668,11703.998152
1372727014,760.7598798800001,11703.998152
1372727314,452.55459521066666,11703.998152
1372727614,454.5052615693333,11703.998152
1372727914,395.9852708093333,11703.998152
1372728214,382.3306062986667,11703.998152
1372728514,382.3306062986667,11703.998152
1372728814,511.0745859706668,11703.998152
1372729114,448.6532624933333,11703.998152
1372729414,536.4332486333333,11703.998152
1372729714,635.9172329253333,11703.998152
1372730014,376.4786072226667,11703.998152
1372730314,353.0706109186667,11703.998152
1372730614,573.495909448,11703.998152
1372730914,440.85059705866666,11703.998152
1372731214,374.5279408640001,11703.998152
1372731514,448.6532624933333,11703.998152
1372731814,604.7065711866667,11703.998152
1372732114,672.97989374,11703.998152
1372732414,1000.691841996,11703.998152
1372732714,1494.210430738667,11703.998152
1372733014,1872.63970432,11703.998152
1372733313,2098.9170019253334,11703.998152
1372733613,1595.6450813893334,11703.998152
1372733913,1223.0678068839998,11703.998152
1372734213,1359.6144519906668,11703.998152
1372734514,1498.1117634560003,11703.998152
1372734814,1806.317048125333,11703.998152
1372735114,1379.1211155773333,11703.998152
1372735414,1995.531684916,11703.998152
1372735714,2151.584993609333,11703.998152
1372736014,2645.103582352,11703.998152
1372736314,2709.475572188,11703.998152
1372736614,2048.1996766,11703.998152
1372736914,2007.235683068,11703.998152
1372737214,1638.55974128,11703.998152
1372737514,2007.235683068,11703.998152
1372737814,2235.463647032,11703.998152
1372738114,2245.216978825333,11703.998152
1372738414,2034.545012089333,11703.998152
1372738714,1677.573068453333,11703.998152
1372739014,218.47463217066667,11703.998152
1372739314,222.375964888,11703.998152
1372739614,195.06663586666664,11703.998152
1372739914,204.81996766,11703.998152
1372740214,288.6986210826667,11703.998152
1372740514,271.1426238546666,11703.998152
1372740814,232.12929668133333,11703.998152
1372741114,280.895955648,11703.998152
1372741414,388.18260537466665,11703.998152
1372741714,366.72527542933335,11703.998152
1372742014,450.603928852,11703.998152
1372742314,434.9985979826667,11703.998152
1372742614,429.14659890666667,11703.998152
1372742914,411.5906016786667,11703.998152
1372743214,472.0612587973334,11703.998152
1372743514,436.9492643413333,11703.998152
1372743815,423.2945998306667,11703.998152
1372744115,425.2452661893333,11703.998152
1372744415,429.14659890666667,11703.998152
1372744715,431.09726526533336,11703.998152
1372745015,462.307927004,11703.998152
1372745315,456.455927928,11703.998152
1372745615,415.491934396,11703.998152
1372745915,427.195932548,11703.998152
1372746215,370.6266081466667,11703.998152
1372746515,388.18260537466665,11703.998152
1372746815,351.11994456,11703.998152
1372747115,425.2452661893333,11703.998152
1372747415,345.267945484,11703.998152
1372747715,360.87327635333327,11703.998152
1372748015,484.8799234399999,11703.998152
1372748315,448.6532624933333,11703.998152
1372748622,436.9492643413333,11703.998152
1372748922,440.85059705866666,11703.998152
1372749222,454.5052615693333,11703.998152
1372749522,405.7386026026667,11703.998152
1372749822,440.85059705866666,11703.998152
1372750122,417.4426007546667,11703.998152
1372750422,450.603928852,11703.998152
1372750722,475.96259151466666,11703.998152
1372751022,1014.3465065066666,11703.998152
1372751322,899.2571913453335,11703.998152
1372751622,577.3972421653334,11703.998152
1372751923,624.2132347733334,11703.998152
1372752223,838.7865342266665,11703.998152
1372752523,366.72527542933335,11703.998152
1372752823,454.5052615693333,11703.998152
1372753123,454.5052615693333,11703.998152
1372753423,456.455927928,11703.998152
1372753723,495.4692551013333,11703.998152
1372754023,466.2092597213333,11703.998152
1372754323,479.863924232,11703.998152
1372754623,431.09726526533336,11703.998152
1372754923,448.6532624933333,11703.998152
1372755223,454.5052615693333,11703.998152
1372755523,511.0745859706668,11703.998152
1372755823,493.5185887426667,11703.998152
1372756123,456.455927928,11703.998152
1372756423,485.7159233080001,11703.998152
1372756723,505.2225868946667,11703.998152
1372757023,2832.367552784,11703.998152
1372757323,1065.063831832,11703.998152
1372757623,306.2546183106667,11703.998152
1372757923,349.16927820133327,11703.998152
1372758223,548.1372467853333,11703.998152
1372758523,518.8772514053334,11703.998152
1372758823,368.675941788,11703.998152
1372759123,353.0706109186667,11703.998152
1372759423,321.85994918,11703.998152
1372759723,312.1066173866667,11703.998152
1372760024,310.155951028,11703.998152
1372760324,263.33995842,11703.998152
1372760624,300.4026192346667,11703.998152
1372760924,276.99462293066665,11703.998152
1372761224,310.155951028,11703.998152
1372761524,282.8466220066667,11703.998152
1372761824,292.5999538,11703.998152
1372762124,273.0932902133334,11703.998152
1372762424,280.895955648,11703.998152
1372762724,284.7972883653334,11703.998152
1372763024,429.14659890666667,11703.998152
1372763324,269.191957496,11703.998152
1372763624,308.20528466933337,11703.998152
1372763924,294.5506201586667,11703.998152
1372764224,292.5999538,11703.998152
1372764524,265.29062477866665,11703.998152
1372764824,249.68529390933327,11703.998152
1372765124,239.931962116,11703.998152
1372765424,265.29062477866665,11703.998152
1372765724,284.7972883653334,11703.998152
1372766024,306.2546183106667,11703.998152
1372766324,275.043956572,11703.998152
1372766624,304.30395195200003,11703.998152
1372766924,316.00795010400003,11703.998152
1372767224,312.1066173866667,11703.998152
1372767524,618.3612356973334,11703.998152
1372767824,946.0731839533332,11703.998152
1372768124,282.8466220066667,11703.998152
1372768424,288.6986210826667,11703.998152
1372768724,265.29062477866665,11703.998152
1372769024,282.8466220066667,11703.998152
1372769324,255.53729298533332,11703.998152
1372769624,308.20528466933337,11703.998152
1372769924,267.2412911373333,11703.998152
1372770224,300.4026192346667,11703.998152
1372770524,300.4026192346667,11703.998152
1372770824,290.64928744133334,11703.998152
1372771124,292.5999538,11703.998152
1372771424,440.85059705866666,11703.998152
1372771724,368.675941788,11703.998152
1372772024,282.8466220066667,11703.998152
1372772324,306.2546183106667,11703.998152
1372772624,302.35328559333334,11703.998152
1372772924,317.95861646266667,11703.998152
1372773224,282.8466220066667,11703.998152
1372773524,314.0572837453333,11703.998152
1372773824,626.163901132,11703.998152
1372774124,1474.703767152,11703.998152
1372774424,1591.743748672,11703.998152
1372774724,1550.77975514,11703.998152
1372775024,2660.7089132213337,11703.998152
1372775624,399.8866035266667,11703.998152
1372775924,239.931962116,11703.998152
1372776224,243.83329483333333,11703.998152
1372776524,284.7972883653334,11703.998152
1372776824,247.73462755066663,11703.998152
1372777125,265.29062477866665,11703.998152
1372777425,1324.5024575346667,11703.998152
1372777725,1258.17980134,11703.998152
1372778025,187.26397043200004,11703.998152
1372778325,220.42529852933333,11703.998152
1372778625,278.94528928933335,11703.998152
1372778925,331.6132809733333,11703.998152
1372779225,1037.7545028106667,11703.998152
1372779525,372.5772745053333,11703.998152
1372779825,271.1426238546666,11703.998152
1372780125,275.043956572,11703.998152
1372780425,319.9092828213333,11703.998152
1372780725,275.043956572,11703.998152
1372781025,788.0692089013334,11703.998152
1372781325,278.94528928933335,11703.998152
1372781625,263.33995842,11703.998152
1372781925,292.5999538,11703.998152
1372782225,319.9092828213333,11703.998152
1372782525,316.00795010400003,11703.998152
1372782825,678.831892816,11703.998152
1372783125,278.94528928933335,11703.998152
1372783425,276.99462293066665,11703.998152
1372783725,413.5412680373333,11703.998152
1372784025,339.415946408,11703.998152
1372784325,298.451952876,11703.998152
1372784625,1043.6065018866666,11703.998152
1372784925,1648.313073073333,11703.998152
1372785225,1788.7610508973337,11703.998152
1372785525,1609.2997459,11703.998152
1372785825,1562.483753292,11703.998152
1372786126,1480.555766228,11703.998152
1372786426,2682.1662431666664,11703.998152
1372786726,2767.995562948,11703.998152
1372787026,1763.402388234667,11703.998152
1372787326,1818.0210462773327,11703.998152
1372787626,1609.2997459,11703.998152
1372787926,1792.6623836146669,11703.998152
1372788226,2233.512980673333,11703.998152
1372788526,1295.2424621546668,11703.998152
1372788826,563.7425776546667,11703.998152
1372789126,633.9665665666666,11703.998152
1372789426,1519.5690934013337,11703.998152
1372789726,1324.5024575346667,11703.998152
1372790026,2401.2702875186665,11703.998152
1372790326,1297.1931285133332,11703.998152
1372790626,1219.1664741666668,11703.998152
1372790926,1234.7718050360002,11703.998152
1372791226,1396.677112805333,11703.998152
1372791526,1704.882397474667,11703.998152
1372791826,2500.754271810666,11703.998152
1372792126,1782.9090518213332,11703.998152
1372792426,585.1999076,11703.998152
1372792726,226.27729760533333,11703.998152
1372793026,286.747954724,11703.998152
1372793326,460.3572606453333,11703.998152
1372793626,827.0825360746667,11703.998152
1372793926,263.33995842,11703.998152
1372794226,491.567922384,11703.998152
1372794526,267.2412911373333,11703.998152
1372794827,236.0306293986667,11703.998152
1372795127,214.57329945333333,11703.998152
1372795427,1897.9983669826668,11703.998152
1372795727,1271.834465850667,11703.998152
1372796027,518.8772514053334,11703.998152
1372796327,840.7372005853333,11703.998152
1372796627,616.4105693386667,11703.998152
1372796927,1049.458500962667,11703.998152
1372797227,1896.047700624,11703.998152
1372797527,1718.5370619853334,11703.998152
1372797827,1466.9011017173334,11703.998152
1372798127,819.27987064,11703.998152
1372798426,1219.1664741666668,11703.998152
1372798726,663.2265619466666,11703.998152
1372799026,1420.0851091093334,11703.998152
1372799326,825.131869716,11703.998152
1372799626,702.23988912,11703.998152
1372799926,475.96259151466666,11703.998152
1372800226,1014.3465065066666,11703.998152
1372800526,702.23988912,11703.998152
1372800826,1433.73977362,11703.998152
1372801127,589.1012403173333,11703.998152
1372801427,602.7559048280001,11703.998152
1372801727,700.2892227613333,11703.998152
1372802027,1148.9424852546667,11703.998152
1372802327,994.83984292,11703.998152
1372802627,1000.691841996,11703.998152
1372802927,756.8585471626667,11703.998152
1372803227,1349.861120197333,11703.998152
1372803527,267.2412911373333,11703.998152
1372803827,602.7559048280001,11703.998152
1372804127,263.33995842,11703.998152
1372804427,1080.669162701333,11703.998152
1372804727,637.867899284,11703.998152
1372805027,312.1066173866667,11703.998152
1372805327,259.4386257026667,11703.998152
1372805627,269.191957496,11703.998152
1372805927,257.487959344,11703.998152
1372806227,1201.6104769386668,11703.998152
1372806527,454.5052615693333,11703.998152
1372806827,222.375964888,11703.998152
1372807127,653.4732301533335,11703.998152
1372807427,565.6932440133334,11703.998152
1372807727,988.9878438439998,11703.998152
1372808027,1018.247839224,11703.998152
1372808327,706.1412218373334,11703.998152
1372808627,524.7292504813333,11703.998152
1372808927,555.93991222,11703.998152
1372809227,655.4238965119999,11703.998152
1372809527,462.307927004,11703.998152
1372809827,2500.754271810666,11703.998152
1372810127,1704.882397474667,11703.998152
1372810427,1386.923781012,11703.998152
1372810727,1568.3357523680002,11703.998152
1372811027,1100.175826288,11703.998152
1372811327,801.723873412,11703.998152
1372811627,873.8985286826667,11703.998152
1372811927,858.2931978133333,11703.998152
1372812228,1135.287820744,11703.998152
1372812528,731.4998845,11703.998152
1372812828,854.391865096,11703.998152
1372813128,1466.9011017173334,11703.998152
1372813428,1135.287820744,11703.998152
1372813728,528.6305831986666,11703.998152
1372814028,612.5092366213333,11703.998152
1372814328,608.6079039040001,11703.998152
1372814628,583.2492412413334,11703.998152
1372814928,312.1066173866667,11703.998152
1372815228,450.603928852,11703.998152
1372815528,273.0932902133334,11703.998152
1372815828,257.487959344,11703.998152
1372816128,273.0932902133334,11703.998152
1372816428,245.783961192,11703.998152
1372816728,251.635960268,11703.998152
1372817028,852.4411987373335,11703.998152
1372817328,419.39326711333325,11703.998152
1372817628,271.1426238546666,11703.998152
1372817928,327.711948256,11703.998152
1372818228,317.95861646266667,11703.998152
1372818528,292.5999538,11703.998152
1372818828,696.3878900440001,11703.998152
1372819128,632.0159002080001,11703.998152
1372819428,298.451952876,11703.998152
1372819728,224.32663124666664,11703.998152
1372820028,259.4386257026667,11703.998152
1372820328,255.53729298533332,11703.998152
1372820628,772.4638780319999,11703.998152
1372820928,1862.886372526667,11703.998152
1372821229,2288.131638716,11703.998152
1372821529,1919.455696928,11703.998152
1372821829,1940.913026873333,11703.998152
1372822129,2036.495678448,11703.998152
1372822429,2623.646252406666,11703.998152
1372822729,2167.1903244786668,11703.998152
1372823029,1226.9691396013334,11703.998152
1372823329,204.81996766,11703.998152
1372823629,267.2412911373333,11703.998152
1372823929,300.4026192346667,11703.998152
1372824229,253.58662662666663,11703.998152
1372824529,329.66261461466667,11703.998152
1372824829,314.0572837453333,11703.998152
1372825129,276.99462293066665,11703.998152
1372825429,319.9092828213333,11703.998152
1372825729,253.58662662666663,11703.998152
1372826029,239.931962116,11703.998152
1372826329,228.227963964,11703.998152
1372826629,206.77063401866667,11703.998152
1372826929,212.62263309466667,11703.998152
1372827229,239.931962116,11703.998152
1372827529,245.783961192,11703.998152
1372827829,245.783961192,11703.998152
1372828129,234.07996304,11703.998152
1372828429,278.94528928933335,11703.998152
1372828729,273.0932902133334,11703.998152
1372829029,239.931962116,11703.998152
1372829329,206.77063401866667,11703.998152
1372829629,269.191957496,11703.998152
1372829929,267.51995776,11703.998152
1372830230,278.94528928933335,11703.998152
1372830530,280.895955648,11703.998152
1372830830,271.1426238546666,11703.998152
1372831129,284.7972883653334,11703.998152
1372831429,253.58662662666663,11703.998152
1372831729,253.58662662666663,11703.998152
1372832029,259.4386257026667,11703.998152
1372832329,271.1426238546666,11703.998152
1372832629,275.043956572,11703.998152
1372832929,276.99462293066665,11703.998152
1372833229,251.635960268,11703.998152
1372833529,222.375964888,11703.998152
1372833829,228.227963964,11703.998152
1372834129,327.711948256,11703.998152
1372834429,263.33995842,11703.998152
1372834729,249.68529390933327,11703.998152
1372835029,265.29062477866665,11703.998152
1372835329,271.1426238546666,11703.998152
1372835629,251.635960268,11703.998152
1372835930,267.2412911373333,11703.998152
1372836230,325.76128189733333,11703.998152
1372836530,288.6986210826667,11703.998152
1372836830,273.0932902133334,11703.998152
1372837130,273.0932902133334,11703.998152
1372837430,267.2412911373333,11703.998152
1372837730,308.20528466933337,11703.998152
1372838030,302.35328559333334,11703.998152
1372838330,292.5999538,11703.998152
1372838630,669.0785610226666,11703.998152
1372838930,304.30395195200003,11703.998152
1372839230,339.415946408,11703.998152
1372839530,290.64928744133334,11703.998152
1372839830,284.7972883653334,11703.998152
1372840130,304.30395195200003,11703.998152
1372840430,314.0572837453333,11703.998152
1372840730,292.5999538,11703.998152
1372841030,317.95861646266667,11703.998152
1372841330,325.76128189733333,11703.998152
1372841630,355.0212772773333,11703.998152
1372841930,319.9092828213333,11703.998152
1372842230,355.0212772773333,11703.998152
1372842530,366.72527542933335,11703.998152
1372842830,358.9226099946667,11703.998152
1372843130,310.155951028,11703.998152
1372843430,3563.867437284,11703.998152
1372843730,450.603928852,11703.998152
1372844030,282.8466220066667,11703.998152
1372844331,265.29062477866665,11703.998152
1372844631,557.8905785786667,11703.998152
1372844931,446.7025961346667,11703.998152
1372845231,280.895955648,11703.998152
1372845531,325.76128189733333,11703.998152
1372845831,292.5999538,11703.998152
1372846131,319.9092828213333,11703.998152
1372846431,316.00795010400003,11703.998152
1372846731,349.16927820133327,11703.998152
1372847031,282.8466220066667,11703.998152
1372847331,280.895955648,11703.998152
1372847631,1361.5651183493333,11703.998152
1372847931,261.3892920613333,11703.998152
1372848231,302.35328559333334,11703.998152
1372848531,304.30395195200003,11703.998152
1372848831,236.0306293986667,11703.998152
1372849131,265.29062477866665,11703.998152
1372849431,487.6665896666667,11703.998152
1372849731,251.635960268,11703.998152
1372850031,294.5506201586667,11703.998152
1372850331,302.35328559333334,11703.998152
1372850631,300.4026192346667,11703.998152
1372850931,325.76128189733333,11703.998152
1372851231,263.33995842,11703.998152
1372851531,249.68529390933327,11703.998152
1372851831,284.7972883653334,11703.998152
1372852131,269.191957496,11703.998152
1372852431,304.30395195200003,11703.998152
1372852732,325.76128189733333,11703.998152
1372853032,310.155951028,11703.998152
1372853332,341.3666127666667,11703.998152
1372853632,302.35328559333334,11703.998152
1372853932,815.3785379226666,11703.998152
1372854232,799.7732070533334,11703.998152
1372854532,220.42529852933333,11703.998152
1372854832,257.487959344,11703.998152
1372855132,275.043956572,11703.998152
1372855432,308.20528466933337,11703.998152
1372855732,323.8106155386667,11703.998152
1372856032,306.2546183106667,11703.998152
1372856332,300.4026192346667,11703.998152
1372856632,284.7972883653334,11703.998152
1372856932,263.33995842,11703.998152
1372857232,296.5012865173333,11703.998152
1372857532,308.20528466933337,11703.998152
1372857832,522.7785841226666,11703.998152
1372858132,392.083938092,11703.998152
1372858432,304.30395195200003,11703.998152
1372858732,383.63105053777775,11703.998152
1372859032,341.3666127666667,11703.998152
1372859332,292.5999538,11703.998152
1372859632,282.8466220066667,11703.998152
1372859932,273.0932902133334,11703.998152
1372860232,751.0065480866666,11703.998152
1372860532,310.155951028,11703.998152
1372860833,312.1066173866667,11703.998152
1372861132,269.191957496,11703.998152
1372861433,1279.6371312853332,11703.998152
1372861733,329.66261461466667,11703.998152
1372862033,524.7292504813333,11703.998152
1372862333,261.3892920613333,11703.998152
1372862633,280.895955648,11703.998152
1372862933,273.0932902133334,11703.998152
1372863233,306.2546183106667,11703.998152
1372863533,327.711948256,11703.998152
1372863832,1821.9223789946668,11703.998152
1372864132,3195.191495496,11703.998152
1372864432,3189.33949642,11703.998152
1372864732,2797.255558328,11703.998152
1372865032,1977.975687688,11703.998152
1372865332,772.4638780319999,11703.998152
1372865632,1219.1664741666668,11703.998152
1372865932,261.3892920613333,11703.998152
1372866232,296.5012865173333,11703.998152
1372866532,241.88262847466663,11703.998152
1372866832,237.98129575733333,11703.998152
1372867133,234.07996304,11703.998152
1372867433,825.131869716,11703.998152
1372867733,353.0706109186667,11703.998152
1372868033,265.29062477866665,11703.998152
1372868333,280.895955648,11703.998152
1372868633,280.895955648,11703.998152
1372868933,263.33995842,11703.998152
1372869233,661.275895588,11703.998152
1372869533,241.88262847466663,11703.998152
1372869833,331.6132809733333,11703.998152
1372870133,267.2412911373333,11703.998152
1372870433,273.0932902133334,11703.998152
1372870733,239.931962116,11703.998152
1372871033,1113.8304907986667,11703.998152
1372871333,251.635960268,11703.998152
1372871633,275.043956572,11703.998152
1372871933,245.783961192,11703.998152
1372872233,222.375964888,11703.998152
1372872533,321.85994918,11703.998152
1372872833,2011.1370157853328,11703.998152
1372873133,2194.4996535,11703.998152
1372873433,304.30395195200003,11703.998152
1372873733,273.0932902133334,11703.998152
1372874033,306.2546183106667,11703.998152
1372874333,282.8466220066667,11703.998152
1372874633,1215.2651414493332,11703.998152
1372874933,768.5625453146666,11703.998152
1372875233,503.271920536,11703.998152
1372875533,1447.394438130667,11703.998152
1372875833,961.6785148226668,11703.998152
1372876133,920.7145212906668,11703.998152
1372876433,1738.043725572,11703.998152
1372876733,1053.35983368,11703.998152
1372877033,994.83984292,11703.998152
1372877333,251.635960268,11703.998152
1372877633,319.9092828213333,11703.998152
1372877934,271.1426238546666,11703.998152
1372878234,1152.843817972,11703.998152
1372878534,440.85059705866666,11703.998152
1372878834,516.9265850466668,11703.998152
1372879134,317.95861646266667,11703.998152
1372879434,286.747954724,11703.998152
1372879734,239.931962116,11703.998152
1372880034,1825.823711712,11703.998152
1372880334,774.4145443906666,11703.998152
1372880634,647.6212310773334,11703.998152
1372880934,308.20528466933337,11703.998152
1372881234,269.191957496,11703.998152
1372881534,563.7425776546667,11703.998152
1372881834,1935.061027797333,11703.998152
1372882134,1154.7944843306668,11703.998152
1372882434,883.651860476,11703.998152
1372882734,1072.8664972666666,11703.998152
1372883034,1039.7051691693332,11703.998152
1372883334,1956.518357742667,11703.998152
1372883634,2356.4049612693334,11703.998152
1372883934,1502.0130961733332,11703.998152
1372884234,916.8131885733336,11703.998152
1372884534,460.3572606453333,11703.998152
1372884834,507.1732532533333,11703.998152
1372885134,434.9985979826667,11703.998152
1372885434,1209.4131423733334,11703.998152
1372885734,329.66261461466667,11703.998152
1372886034,606.6572375453334,11703.998152
1372886334,475.96259151466666,11703.998152
1372886634,973.3825129746666,11703.998152
1372886934,819.27987064,11703.998152
1372887234,1111.87982444,11703.998152
1372887534,438.8999307,11703.998152
1372887835,298.451952876,11703.998152
1372888135,649.571897436,11703.998152
1372888435,1061.1624991146666,11703.998152
1372888735,1252.327802264,11703.998152
1372889035,1513.7170943253334,11703.998152
1372889335,1043.6065018866666,11703.998152
1372889635,1347.9104538386666,11703.998152
1372889935,1466.9011017173334,11703.998152
1372890235,1100.175826288,11703.998152
1372890535,1324.5024575346667,11703.998152
1372890835,790.0198752599999,11703.998152
1372891135,803.6745397706666,11703.998152
1372891435,622.2625684146667,11703.998152
1372891735,602.7559048280001,11703.998152
1372892035,310.155951028,11703.998152
1372892335,239.931962116,11703.998152
1372892635,1466.9011017173334,11703.998152
1372892935,1498.1117634560003,11703.998152
1372893235,1248.4264695466668,11703.998152
1372893535,1269.883799492,11703.998152
1372893835,1621.003744052,11703.998152
1372894135,1051.4091673213336,11703.998152
1372894435,704.1905554786666,11703.998152
1372894735,553.9892458613333,11703.998152
1372895035,764.6612125973334,11703.998152
1372895335,690.535890968,11703.998152
1372895635,583.2492412413334,11703.998152
1372895935,873.8985286826667,11703.998152
1372896235,2200.351652576,11703.998152
1372896535,1714.635729268,11703.998152
1372896835,1061.1624991146666,11703.998152
1372897135,1414.233110033333,11703.998152
1372897435,1636.609074921333,11703.998152
1372897735,1012.395840148,11703.998152
1372898035,834.8852015093335,11703.998152
1372898335,1168.4491488413337,11703.998152
1372898635,698.3385564026665,11703.998152
1372898935,528.6305831986666,11703.998152
1372899235,1164.5478161239998,11703.998152
1372899535,1217.215807808,11703.998152
1372899835,1094.323827212,11703.998152
1372900135,511.0745859706668,11703.998152
1372900435,583.1099079300001,11703.998152
1372900735,708.0918881959999,11703.998152
1372901035,594.9532393933333,11703.998152
1372901335,786.1185425426665,11703.998152
1372901635,1070.915830908,11703.998152
1372901935,234.07996304,11703.998152
1372902235,317.67994984,11703.998152
1372902535,276.99462293066665,11703.998152
1372902835,241.88262847466663,11703.998152
1372903135,255.53729298533332,11703.998152
1372903435,790.0198752599999,11703.998152
1372903736,372.5772745053333,11703.998152
1372904036,399.8866035266667,11703.998152
1372904336,282.8466220066667,11703.998152
1372904636,327.711948256,11703.998152
1372904936,298.451952876,11703.998152
1372905236,910.9611894973334,11703.998152
1372905536,421.343933472,11703.998152
1372905836,374.5279408640001,11703.998152
1372906136,302.35328559333334,11703.998152
1372906436,282.8466220066667,11703.998152
1372906736,278.94528928933335,11703.998152
1372907036,700.2892227613333,11703.998152
1372907336,1533.223757912,11703.998152
1372907636,926.5665203666666,11703.998152
1372907936,1589.7930823133331,11703.998152
1372908236,1439.591772696,11703.998152
1372908536,284.7972883653334,11703.998152
1372908836,1542.9770897053331,11703.998152
1372909136,431.09726526533336,11703.998152
1372909436,317.67994984,11703.998152
1372909736,286.747954724,11703.998152
1372910036,333.563947332,11703.998152
1372910336,247.73462755066663,11703.998152
1372910636,316.00795010400003,11703.998152
1372910936,347.21861184266663,11703.998152
1372911236,321.85994918,11703.998152
1372911536,275.87995644,11703.998152
1372911836,323.8106155386667,11703.998152
1372912136,282.14995545000005,11703.998152
1372912436,303.04995215,11703.998152
1372912736,286.747954724,11703.998152
1372913036,303.04995215,11703.998152
1372913336,328.12994819,11703.998152
1372913636,286.32995479,11703.998152
1372913936,294.68995347,11703.998152
1372914236,284.23995512000005,11703.998152
1372914536,282.14995545000005,11703.998152
1372914837,319.76994951,11703.998152
1372915137,296.77995314000003,11703.998152
1372915437,284.23995512000005,11703.998152
1372915737,307.22995149,11703.998152
1372916037,290.50995413,11703.998152
1372916337,263.33995842,11703.998152
1372916637,294.68995347,11703.998152
1372916937,261.24995875,11703.998152
1372917237,310.155951028,11703.998152
1372917537,215.26996601,11703.998152
1372917837,252.8899600700001,11703.998152
1372918137,286.32995479,11703.998152
1372918437,296.77995314000003,11703.998152
1372918737,243.83329483333333,11703.998152
1372919037,296.77995314000003,11703.998152
1372919337,225.71996436,11703.998152
1372919637,286.32995479,11703.998152
1372919937,288.6986210826667,11703.998152
1372920237,288.41995446,11703.998152
1372920537,230.17863032266663,11703.998152
1372920837,280.895955648,11703.998152
1372921137,273.0932902133334,11703.998152
1372921437,353.0706109186667,11703.998152
1372921737,366.72527542933335,11703.998152
1372922037,355.0212772773333,11703.998152
1372922337,314.0572837453333,11703.998152
1372922637,353.0706109186667,11703.998152
1372922937,378.42927358133335,11703.998152
1372923237,325.76128189733333,11703.998152
1372923537,280.895955648,11703.998152
1372923837,321.85994918,11703.998152
1372924138,304.30395195200003,11703.998152
1372924438,294.5506201586667,11703.998152
1372924738,276.99462293066665,11703.998152
1372925038,768.5625453146666,11703.998152
1372925338,296.5012865173333,11703.998152
1372925638,300.4026192346667,11703.998152
1372925938,273.0932902133334,11703.998152
1372926238,310.155951028,11703.998152
1372926538,290.64928744133334,11703.998152
1372926838,312.1066173866667,11703.998152
1372927138,292.5999538,11703.998152
1372927438,325.76128189733333,11703.998152
1372927738,288.6986210826667,11703.998152
1372928038,255.53729298533332,11703.998152
1372928338,280.895955648,11703.998152
1372928638,306.2546183106667,11703.998152
1372928938,241.88262847466663,11703.998152
1372929238,335.5146136906667,11703.998152
1372929538,304.30395195200003,11703.998152
1372929838,3039.138186802667,11703.998152
1372930138,550.087913144,11703.998152
1372930438,269.191957496,11703.998152
1372930738,282.8466220066667,11703.998152
1372931038,514.975918688,11703.998152
1372931338,433.04793162400006,11703.998152
1372931638,356.971943636,11703.998152
1372931938,214.57329945333333,11703.998152
1372932238,290.64928744133334,11703.998152
1372932538,259.4386257026667,11703.998152
1372932838,251.635960268,11703.998152
1372933138,298.451952876,11703.998152
1372933438,261.3892920613333,11703.998152
1372933738,267.2412911373333,11703.998152
1372934038,245.783961192,11703.998152
1372934338,278.94528928933335,11703.998152
1372934638,286.747954724,11703.998152
1372934938,300.4026192346667,11703.998152
1372935238,282.8466220066667,11703.998152
1372935538,236.0306293986667,11703.998152
1372935838,495.4692551013333,11703.998152
1372936138,253.58662662666663,11703.998152
1372936438,247.73462755066663,11703.998152
1372936738,251.635960268,11703.998152
1372937038,304.30395195200003,11703.998152
1372937338,247.73462755066663,11703.998152
1372937638,278.94528928933335,11703.998152
1372937938,511.0745859706668,11703.998152
1372938238,2766.044896589334,11703.998152
1372938538,1558.582420574667,11703.998152
1372938838,278.94528928933335,11703.998152
1372939138,323.8106155386667,11703.998152
1372939438,308.20528466933337,11703.998152
1372939738,308.20528466933337,11703.998152
1372940039,317.95861646266667,11703.998152
1372940339,700.2892227613333,11703.998152
1372940639,881.7011941173333,11703.998152
1372940939,288.6986210826667,11703.998152
1372941239,319.9092828213333,11703.998152
1372941539,265.29062477866665,11703.998152
1372941839,302.35328559333334,11703.998152
1372942139,306.2546183106667,11703.998152
1372942439,325.76128189733333,11703.998152
1372942739,321.85994918,11703.998152
1372943039,351.11994456,11703.998152
1372943339,300.4026192346667,11703.998152
1372943639,310.155951028,11703.998152
1372943939,366.72527542933335,11703.998152
1372944239,569.5945767306667,11703.998152
1372944539,358.9226099946667,11703.998152
1372944839,355.0212772773333,11703.998152
1372945139,351.11994456,11703.998152
1372945439,331.6132809733333,11703.998152
1372945739,339.415946408,11703.998152
1372946039,353.0706109186667,11703.998152
1372946339,339.415946408,11703.998152
1372946639,797.8225406946667,11703.998152
1372946939,308.20528466933337,11703.998152
1372947239,349.16927820133327,11703.998152
1372947539,351.11994456,11703.998152
1372947839,1285.4891303613333,11703.998152
1372948139,401.8372698853333,11703.998152
1372948439,532.531915916,11703.998152
1372948739,263.33995842,11703.998152
1372949039,304.30395195200003,11703.998152
1372949339,296.5012865173333,11703.998152
1372949639,286.747954724,11703.998152
1372949939,317.95861646266667,11703.998152
1372950239,2352.503628552,11703.998152
1372950539,339.415946408,11703.998152
1372950839,294.5506201586667,11703.998152
1372951139,273.0932902133334,11703.998152
1372951439,288.6986210826667,11703.998152
1372951740,253.58662662666663,11703.998152
1372952040,1172.3504815586666,11703.998152
1372952340,296.5012865173333,11703.998152
1372952640,294.5506201586667,11703.998152
1372952940,314.0572837453333,11703.998152
1372953240,306.2546183106667,11703.998152
1372953540,319.9092828213333,11703.998152
1372953840,869.9971959653334,11703.998152
1372954140,345.267945484,11703.998152
1372954440,325.76128189733333,11703.998152
1372954740,300.4026192346667,11703.998152
1372955040,312.1066173866667,11703.998152
1372955340,286.747954724,11703.998152
1372955640,1039.7051691693332,11703.998152
1372955940,314.0572837453333,11703.998152
1372956240,271.1426238546666,11703.998152
1372956540,312.1066173866667,11703.998152
1372956840,284.7972883653334,11703.998152
1372957140,265.29062477866665,11703.998152
1372957440,1191.857145145333,11703.998152
1372957740,271.1426238546666,11703.998152
1372958040,302.35328559333334,11703.998152
1372958340,276.99462293066665,11703.998152
1372958640,280.895955648,11703.998152
1372958940,273.0932902133334,11703.998152
1372959240,2237.414313390667,11703.998152
1372959541,2102.818334642667,11703.998152
1372959841,290.64928744133334,11703.998152
1372960141,259.4386257026667,11703.998152
1372960441,271.1426238546666,11703.998152
1372960741,267.2412911373333,11703.998152
1372961041,1320.6011248173336,11703.998152
1372961341,715.8945536306667,11703.998152
1372961641,370.6266081466667,11703.998152
1372961941,1367.4171174253331,11703.998152
1372962241,1028.0011710173335,11703.998152
1372962541,985.0865111266666,11703.998152
1372962841,2013.087682144,11703.998152
1372963141,909.0105231386666,11703.998152
1372963441,1250.377135905333,11703.998152
1372963741,333.563947332,11703.998152
1372964041,271.1426238546666,11703.998152
1372964341,271.1426238546666,11703.998152
1372964641,1176.251814276,11703.998152
1372964941,271.1426238546666,11703.998152
1372965241,276.99462293066665,11703.998152
1372965541,265.29062477866665,11703.998152
1372965841,316.00795010400003,11703.998152
1372966141,319.9092828213333,11703.998152
1372966441,881.7011941173333,11703.998152
1372966741,271.1426238546666,11703.998152
1372967041,288.6986210826667,11703.998152
1372967341,282.8466220066667,11703.998152
1372967641,290.64928744133334,11703.998152
1372967941,292.5999538,11703.998152
1372968241,1677.573068453333,11703.998152
1372968541,1078.7184963426666,11703.998152
1372968841,1209.4131423733334,11703.998152
1372969141,914.8625222146668,11703.998152
1372969441,1767.303720952,11703.998152
1372969741,1661.967737584,11703.998152
1372970041,2005.2850167093327,11703.998152
1372970341,979.2345120506668,11703.998152
1372970642,594.9532393933333,11703.998152
1372970942,511.0745859706668,11703.998152
1372971242,665.1772283053334,11703.998152
1372971542,961.6785148226668,11703.998152
1372971842,1115.7811571573334,11703.998152
1372972142,450.603928852,11703.998152
1372972442,456.455927928,11703.998152
1372972742,829.0332024333334,11703.998152
1372973042,635.9172329253333,11703.998152
1372973342,483.76525694933326,11703.998152
1372973642,1191.857145145333,11703.998152
1372973942,762.7105462386667,11703.998152
1372974242,618.3612356973334,11703.998152
1372974542,895.355858628,11703.998152
1372974842,791.9705416186666,11703.998152
1372975142,938.2705185186664,11703.998152
1372975442,1455.1971035653332,11703.998152
1372975742,497.41992146000007,11703.998152
1372976042,606.6572375453334,11703.998152
1372976342,1094.323827212,11703.998152
1372976642,885.6025268346666,11703.998152
1372976942,762.7105462386667,11703.998152
1372977242,1252.327802264,11703.998152
1372977542,394.0346044506667,11703.998152
1372977842,955.8265157466666,11703.998152
1372978142,477.9132578733333,11703.998152
1372978442,579.347908524,11703.998152
1372978742,438.8999307,11703.998152
1372979042,1521.5197597600002,11703.998152
1372979342,405.7386026026667,11703.998152
1372979642,280.895955648,11703.998152
1372979942,507.1732532533333,11703.998152
1372980242,489.61725602533335,11703.998152
1372980542,583.2492412413334,11703.998152
1372980842,483.76525694933326,11703.998152
1372981142,518.8772514053334,11703.998152
1372981442,684.6838918919999,11703.998152
1372981742,528.6305831986666,11703.998152
1372982042,883.651860476,11703.998152
1372982342,910.9611894973334,11703.998152
1372982642,2247.167645184,11703.998152
1372982943,819.27987064,11703.998152
1372983243,1482.5064325866667,11703.998152
1372983543,1667.81973666,11703.998152
1372983843,575.4465758066667,11703.998152
1372984143,953.875849388,11703.998152
1372984443,596.903905752,11703.998152
1372984743,801.723873412,11703.998152
1372985043,672.97989374,11703.998152
1372985343,864.1451968893334,11703.998152
1372985643,938.2705185186664,11703.998152
1372985943,905.1091904213332,11703.998152
1372986243,1010.4451737893334,11703.998152
1372986543,1150.8931516133334,11703.998152
1372986843,944.1225175946668,11703.998152
1372987143,1281.587797644,11703.998152
1372987443,1059.211832756,11703.998152
1372987743,1193.807811504,11703.998152
1372988043,1377.1704492186668,11703.998152
1372988343,1751.6983900826665,11703.998152
1372988643,1006.543841072,11703.998152
1372988943,994.83984292,11703.998152
1372989243,1347.9104538386666,11703.998152
1372989543,1154.7944843306668,11703.998152
1372989843,1267.9331331333333,11703.998152
1372990143,1074.8171636253333,11703.998152
1372990443,1051.4091673213336,11703.998152
1372990743,953.875849388,11703.998152
1372991043,936.31985216,11703.998152
1372991343,721.7465527066665,11703.998152
1372991643,791.9705416186666,11703.998152
1372991943,776.3652107493333,11703.998152
1372992244,1158.695817048,11703.998152
1372992544,1332.3051229693333,11703.998152
1372992844,1162.5971497653334,11703.998152
1372993144,1355.7131192733332,11703.998152
1372993444,2754.3408984373336,11703.998152
1372993744,2323.243633172,11703.998152
1372994044,1010.4451737893334,11703.998152
1372994344,1486.407765304,11703.998152
1372994644,1478.6050998693331,11703.998152
1372994944,805.6252061293334,11703.998152
1372995244,1240.623804112,11703.998152
1372995544,1020.1985055826668,11703.998152
1372995844,1123.583822592,11703.998152
1372996144,1264.031800416,11703.998152
1372996444,1232.8211386773337,11703.998152
1372996744,1970.173022253333,11703.998152
1372997044,1607.3490795413331,11703.998152
1372997344,1954.567691384,11703.998152
1372997644,1892.146367906667,11703.998152
1372997944,1940.913026873333,11703.998152
1372998244,2022.8410139373327,11703.998152
1372998544,335.5146136906667,11703.998152
1372998844,273.0932902133334,11703.998152
1372999144,237.98129575733333,11703.998152
1372999444,310.155951028,11703.998152
1372999744,276.99462293066665,11703.998152
1373000044,306.2546183106667,11703.998152
1373000344,298.451952876,11703.998152
1373000644,294.5506201586667,11703.998152
1373000944,292.5999538,11703.998152
1373001244,321.85994918,11703.998152
1373001544,306.2546183106667,11703.998152
1373001844,302.35328559333334,11703.998152
1373002144,339.415946408,11703.998152
1373002444,345.267945484,11703.998152
1373002744,329.66261461466667,11703.998152
1373003044,319.9092828213333,11703.998152
1373003344,327.711948256,11703.998152
1373003644,333.563947332,11703.998152
1373003944,325.76128189733333,11703.998152
1373004245,339.415946408,11703.998152
1373004545,335.5146136906667,11703.998152
1373004845,325.76128189733333,11703.998152
1373005145,312.1066173866667,11703.998152
1373005445,337.46528004933333,11703.998152
1373005745,294.5506201586667,11703.998152
1373006045,294.5506201586667,11703.998152
1373006345,296.5012865173333,11703.998152
1373006645,329.66261461466667,11703.998152
1373006945,288.6986210826667,11703.998152
1373007245,319.9092828213333,11703.998152
1373007545,300.4026192346667,11703.998152
1373007845,312.1066173866667,11703.998152
1373008145,337.46528004933333,11703.998152
1373008445,317.95861646266667,11703.998152
1373008745,360.87327635333327,11703.998152
1373009045,333.563947332,11703.998152
1373009345,360.87327635333327,11703.998152
1373009645,294.5506201586667,11703.998152
1373009945,298.451952876,11703.998152
1373010245,302.35328559333334,11703.998152
1373010545,339.415946408,11703.998152
1373010845,308.20528466933337,11703.998152
1373011145,317.95861646266667,11703.998152
1373011445,786.1185425426665,11703.998152
1373011745,343.3172791253333,11703.998152
1373012045,321.85994918,11703.998152
1373012345,316.00795010400003,11703.998152
1373012645,333.563947332,11703.998152
1373012945,308.20528466933337,11703.998152
1373013245,339.415946408,11703.998152
1373013545,347.21861184266663,11703.998152
1373013845,355.0212772773333,11703.998152
1373014145,345.267945484,11703.998152
1373014445,345.267945484,11703.998152
1373014745,306.2546183106667,11703.998152
1373015045,366.72527542933335,11703.998152
1373015345,341.3666127666667,11703.998152
1373015645,306.2546183106667,11703.998152
1373015946,345.267945484,11703.998152
1373016246,296.5012865173333,11703.998152
1373016546,314.0572837453333,11703.998152
1373016846,329.66261461466667,11703.998152
1373017146,347.21861184266663,11703.998152
1373017446,360.87327635333327,11703.998152
1373017746,661.275895588,11703.998152
1373018046,333.563947332,11703.998152
1373018346,282.8466220066667,11703.998152
1373018646,325.76128189733333,11703.998152
1373018946,317.95861646266667,11703.998152
1373019246,273.0932902133334,11703.998152
1373019546,280.895955648,11703.998152
1373019846,319.9092828213333,11703.998152
1373020146,321.85994918,11703.998152
1373020446,298.451952876,11703.998152
1373020746,312.1066173866667,11703.998152
1373021046,353.0706109186667,11703.998152
1373021346,306.2546183106667,11703.998152
1373021646,304.30395195200003,11703.998152
1373021946,280.895955648,11703.998152
1373022246,585.1999076,11703.998152
1373022546,329.66261461466667,11703.998152
1373022846,325.76128189733333,11703.998152
1373023146,317.95861646266667,11703.998152
1373023446,317.95861646266667,11703.998152
1373023746,321.85994918,11703.998152
1373024047,335.5146136906667,11703.998152
1373024347,316.00795010400003,11703.998152
1373024647,304.30395195200003,11703.998152
1373024947,296.5012865173333,11703.998152
1373025247,341.3666127666667,11703.998152
1373025547,312.1066173866667,11703.998152
1373025847,306.2546183106667,11703.998152
1373026147,323.8106155386667,11703.998152
1373026447,341.3666127666667,11703.998152
1373026747,667.127894664,11703.998152
1373027047,936.31985216,11703.998152
1373027347,253.58662662666663,11703.998152
1373027647,249.68529390933327,11703.998152
1373027947,304.30395195200003,11703.998152
1373028247,284.7972883653334,11703.998152
1373028547,304.30395195200003,11703.998152
1373028847,255.53729298533332,11703.998152
1373029147,316.00795010400003,11703.998152
1373029447,278.94528928933335,11703.998152
1373029747,269.191957496,11703.998152
1373030047,269.191957496,11703.998152
1373030347,349.16927820133327,11703.998152
1373030647,475.96259151466666,11703.998152
1373030947,378.42927358133335,11703.998152
1373031247,316.00795010400003,11703.998152
1373031547,263.33995842,11703.998152
1373031847,282.8466220066667,11703.998152
1373032147,286.747954724,11703.998152
1373032447,339.415946408,11703.998152
1373032747,319.9092828213333,11703.998152
1373033047,733.4505508586667,11703.998152
1373033347,329.66261461466667,11703.998152
1373033647,312.1066173866667,11703.998152
1373033948,331.6132809733333,11703.998152
1373034248,1308.8971266653332,11703.998152
1373034548,267.2412911373333,11703.998152
1373034848,475.96259151466666,11703.998152
1373035148,226.27729760533333,11703.998152
1373035448,245.783961192,11703.998152
1373035748,271.1426238546666,11703.998152
1373036048,284.7972883653334,11703.998152
1373036348,278.94528928933335,11703.998152
1373036648,1667.81973666,11703.998152
1373036948,1002.6425083546668,11703.998152
1373037248,273.0932902133334,11703.998152
1373037548,288.6986210826667,11703.998152
1373037848,280.895955648,11703.998152
1373038148,280.895955648,11703.998152
1373038448,1219.1664741666668,11703.998152
1373038748,310.155951028,11703.998152
1373039048,306.2546183106667,11703.998152
1373039348,329.66261461466667,11703.998152
1373039648,308.20528466933337,11703.998152
1373039948,316.00795010400003,11703.998152
1373040248,864.1451968893334,11703.998152
1373040548,302.35328559333334,11703.998152
1373040848,374.5279408640001,11703.998152
1373041149,323.8106155386667,11703.998152
1373041449,345.267945484,11703.998152
1373041749,314.0572837453333,11703.998152
1373042049,754.907880804,11703.998152
1373042349,314.0572837453333,11703.998152
1373042649,294.5506201586667,11703.998152
1373042949,329.66261461466667,11703.998152
1373043249,275.043956572,11703.998152
1373043549,356.971943636,11703.998152
1373043849,1160.646483406667,11703.998152
1373044149,325.76128189733333,11703.998152
1373044449,294.5506201586667,11703.998152
1373044749,317.95861646266667,11703.998152
1373045049,321.85994918,11703.998152
1373045349,314.0572837453333,11703.998152
1373045649,1722.4383947026663,11703.998152
1373045949,2990.3715278360005,11703.998152
1373046249,251.635960268,11703.998152
1373046549,255.53729298533332,11703.998152
1373046849,280.895955648,11703.998152
1373047149,249.68529390933327,11703.998152
1373047449,1406.4304445986668,11703.998152
1373047749,3372.7021341346663,11703.998152
1373048049,2479.2969418653333,11703.998152
1373048349,6066.572375453334,11703.998152
1373048649,2438.3329483333337,11703.998152
1373048949,1757.5503891586666,11703.998152
1373049249,1993.5810185573328,11703.998152
1373049549,4927.3832219920005,11703.998152
1373049849,1962.3703568186663,11703.998152
1373050149,1636.609074921333,11703.998152
1373050449,1137.2384871026668,11703.998152
1373050749,1121.6331562333337,11703.998152
1373051049,1490.3090980213333,11703.998152
1373051350,1406.4304445986668,11703.998152
1373051650,2528.063600832,11703.998152
1373051950,2186.696988065333,11703.998152
1373052250,257.487959344,11703.998152
1373052550,298.451952876,11703.998152
1373052850,955.8265157466666,11703.998152
1373053150,226.27729760533333,11703.998152
1373053450,251.635960268,11703.998152
1373053750,230.17863032266663,11703.998152
1373054050,263.33995842,11703.998152
1373054350,224.32663124666664,11703.998152
1373054650,1952.6170250253333,11703.998152
1373054950,1357.663785632,11703.998152
1373055250,1318.650458458667,11703.998152
1373055550,1049.458500962667,11703.998152
1373055850,741.2532162933334,11703.998152
1373056150,513.0252523293333,11703.998152
1373056450,2262.7729760533334,11703.998152
1373056750,1784.8597181799998,11703.998152
1373057050,1223.0678068839998,11703.998152
1373057350,1355.7131192733332,11703.998152
1373057650,852.4411987373335,11703.998152
1373057950,651.5225637946667,11703.998152
1373058250,1552.7304214986666,11703.998152
1373058550,731.4998845,11703.998152
1373058850,953.875849388,11703.998152
1373059150,825.131869716,11703.998152
1373059450,821.2305369986666,11703.998152
1373059750,358.9226099946667,11703.998152
1373060050,1135.287820744,11703.998152
1373060350,922.6651876493332,11703.998152
1373060650,456.455927928,11703.998152
1373060950,343.3172791253333,11703.998152
1373061250,600.8052384693334,11703.998152
1373061550,620.311902056,11703.998152
1373061850,1258.17980134,11703.998152
1373062150,282.8466220066667,11703.998152
1373062450,604.7065711866667,11703.998152
1373062750,879.7505277586667,11703.998152
1373063050,721.7465527066665,11703.998152
1373063350,731.4998845,11703.998152
1373063650,747.1052153693335,11703.998152
1373063950,1004.5931747133334,11703.998152
1373064250,731.4998845,11703.998152
1373064550,1029.951837376,11703.998152
1373064850,715.8945536306667,11703.998152
1373065151,368.675941788,11703.998152
1373065451,1486.407765304,11703.998152
1373065751,879.7505277586667,11703.998152
1373066051,1022.1491719413336,11703.998152
1373066351,940.2211848773331,11703.998152
1373066651,994.83984292,11703.998152
1373066951,856.3425314546666,11703.998152
1373067251,967.5305138986664,11703.998152
1373067551,912.911855856,11703.998152
1373067851,891.4545259106666,11703.998152
1373068151,1221.1171405253333,11703.998152
1373068451,949.9745166706668,11703.998152
1373068751,938.2705185186664,11703.998152
1373069051,2233.512980673333,11703.998152
1373069351,1150.8931516133334,11703.998152
1373069651,951.9251830293332,11703.998152
1373069951,1585.891749596,11703.998152
1373070251,1927.2583623626667,11703.998152
1373070551,628.1145674906666,11703.998152
1373070851,711.9932209133334,11703.998152
1373071151,1072.8664972666666,11703.998152
1373071451,971.431846616,11703.998152
1373071751,946.0731839533332,11703.998152
1373072051,721.7465527066665,11703.998152
1373072351,1201.6104769386668,11703.998152
1373072651,1447.394438130667,11703.998152
1373072951,1418.1344427506667,11703.998152
1373073251,2011.1370157853328,11703.998152
1373073551,1373.2691165013332,11703.998152
1373073851,1435.6904399786667,11703.998152
1373074151,1246.475803188,11703.998152
1373074451,1008.4945074306668,11703.998152
1373074751,1525.421092477333,11703.998152
1373075051,1585.891749596,11703.998152
1373075351,1254.2784686226669,11703.998152
1373075651,1671.7210693773334,11703.998152
1373075952,1154.7944843306668,11703.998152
1373076252,1314.749125741333,11703.998152
1373076552,1677.573068453333,11703.998152
1373076852,1777.057052745333,11703.998152
1373077152,1230.8704723186668,11703.998152
1373077452,1106.027825364,11703.998152
1373077752,1156.7451506893333,11703.998152
1373078052,1661.967737584,11703.998152
1373078352,823.1812033573334,11703.998152
1373078652,786.1185425426665,11703.998152
1373078952,2034.545012089333,11703.998152
1373079252,614.45990298,11703.998152
1373079552,1061.1624991146666,11703.998152
1373079852,440.85059705866666,11703.998152
1373080152,261.3892920613333,11703.998152
1373080452,951.9251830293332,11703.998152
1373080752,1687.3264002466667,11703.998152
1373081052,1369.3677837839998,11703.998152
1373081352,1907.751698776,11703.998152
1373081652,2615.843586972,11703.998152
1373081952,522.7785841226666,11703.998152
1373082252,243.83329483333333,11703.998152
1373082552,263.33995842,11703.998152
1373082852,317.95861646266667,11703.998152
1373083152,267.2412911373333,11703.998152
1373083452,1429.838440902667,11703.998152
1373083752,1689.2770666053332,11703.998152
1373084052,1197.7091442213334,11703.998152
1373084352,1049.458500962667,11703.998152
1373084652,1273.7851322093331,11703.998152
1373084952,1221.1171405253333,11703.998152
1373085252,975.3331793333334,11703.998152
1373085552,949.9745166706668,11703.998152
1373085852,1234.7718050360002,11703.998152
1373086152,1525.421092477333,11703.998152
1373086452,1104.0771590053334,11703.998152
1373086752,1267.9331331333333,11703.998152
1373087052,1264.031800416,11703.998152
1373087352,996.7905092786666,11703.998152
1373087652,988.9878438439998,11703.998152
1373087952,1016.2971728653334,11703.998152
1373088252,1494.210430738667,11703.998152
1373088552,1201.6104769386668,11703.998152
1373088852,1152.843817972,11703.998152
1373089153,1398.627779164,11703.998152
1373089453,1031.9025037346669,11703.998152
1373089753,990.9385102026666,11703.998152
1373090053,542.2852477093332,11703.998152
1373090353,288.6986210826667,11703.998152
1373090653,1517.6184270426666,11703.998152
1373090953,2176.943656272,11703.998152
1373091253,926.5665203666666,11703.998152
1373091553,825.131869716,11703.998152
1373091853,848.5398660200001,11703.998152
1373092153,1037.7545028106667,11703.998152
1373092453,2110.621000077333,11703.998152
1373092753,2514.4089363213334,11703.998152
1373093053,2660.7089132213337,11703.998152
1373093353,1353.7624529146667,11703.998152
1373093652,275.043956572,11703.998152
1373093952,261.3892920613333,11703.998152
1373094252,1603.447746824,11703.998152
1373094552,1833.626377146667,11703.998152
1373094852,2225.7103152386667,11703.998152
1373095152,2592.435590668,11703.998152
1373095453,2442.2342810506666,11703.998152
1373095753,2319.3423004546667,11703.998152
1373096053,2215.956983445333,11703.998152
1373096353,2498.803605452,11703.998152
1373096653,3380.504799569333,11703.998152
1373096953,3300.527478864,11703.998152
1373097253,3476.087451144,11703.998152
1373097553,3737.4767432053336,11703.998152
1373097853,2890.887543544,11703.998152
1373098153,1765.3530545933331,11703.998152
1373098453,2598.287589744,11703.998152
1373098753,3690.660750597333,11703.998152
1373099053,3085.9541794106663,11703.998152
1373099353,2851.8742163706665,11703.998152
1373099653,1361.5651183493333,11703.998152
1373099953,388.18260537466665,11703.998152
1373100253,290.64928744133334,11703.998152
1373100553,419.39326711333325,11703.998152
1373100853,364.7746090706667,11703.998152
1373101153,247.73462755066663,11703.998152
1373101453,1843.37970894,11703.998152
1373101753,2799.2062246866662,11703.998152
1373102053,2996.2235269120006,11703.998152
1373102353,1340.1077884039998,11703.998152
1373102653,3232.2541563106665,11703.998152
1373102953,2147.6836608920003,11703.998152
1373103253,2260.8223096946667,11703.998152
1373103553,610.5585702626666,11703.998152
1373103853,1318.650458458667,11703.998152
1373104153,1133.3371543853334,11703.998152
1373104453,770.5132116733334,11703.998152
1373104753,953.875849388,11703.998152
1373105053,1697.0797320400002,11703.998152
1373105354,864.1451968893334,11703.998152
1373105654,663.2265619466666,11703.998152
1373105954,907.05985678,11703.998152
1373106254,795.871874336,11703.998152
1373106554,649.571897436,11703.998152
1373106854,1642.4610739973332,11703.998152
1373107154,942.171851236,11703.998152
1373107454,555.93991222,11703.998152
1373107754,879.7505277586667,11703.998152
1373108054,284.7972883653334,11703.998152
1373108354,280.895955648,11703.998152
1373108654,1658.0664048666667,11703.998152
1373108954,1172.3504815586666,11703.998152
1373109254,616.4105693386667,11703.998152
1373109554,337.46528004933333,11703.998152
1373109854,413.5412680373333,11703.998152
1373110154,351.11994456,11703.998152
1373110454,2155.4863263266666,11703.998152
1373110754,3294.675479788,11703.998152
1373111054,2629.498251482666,11703.998152
1373111354,2791.4035592520004,11703.998152
1373111654,1685.375733888,11703.998152
1373111954,1277.6864649266668,11703.998152
1373112254,1940.913026873333,11703.998152
1373112554,2003.334350350667,11703.998152
1373112854,1894.0970342653336,11703.998152
1373113154,2233.512980673333,11703.998152
1373113454,2428.57961654,11703.998152
1373113754,1886.2943688306664,11703.998152
1373114054,4072.991356896,11703.998152
1373114354,4498.236623085334,11703.998152
1373114654,3846.714059290666,11703.998152
1373114954,1956.518357742667,11703.998152
1373115254,1002.6425083546668,11703.998152
1373115554,1804.3663817666668,11703.998152
1373115854,2908.443540772,11703.998152
1373116155,2773.847562024,11703.998152
1373116455,2001.383683992,11703.998152
1373116755,1310.847793024,11703.998152
1373117055,2194.4996535,11703.998152
1373117355,1063.1131654733333,11703.998152
1373117655,1068.9651645493332,11703.998152
1373117955,967.5305138986664,11703.998152
1373118255,1014.3465065066666,11703.998152
1373118555,1031.9025037346669,11703.998152
1373118855,994.83984292,11703.998152
1373119155,557.8905785786667,11703.998152
1373119455,965.57984754,11703.998152
1373119755,271.1426238546666,11703.998152
1373120055,222.375964888,11703.998152
1373120355,241.88262847466663,11703.998152
1373120655,1230.8704723186668,11703.998152
1373120955,304.30395195200003,11703.998152
1373121255,464.25859336266666,11703.998152
1373121555,212.62263309466667,11703.998152
1373121855,214.57329945333333,11703.998152
1373122155,241.88262847466663,11703.998152
1373122455,259.4386257026667,11703.998152
1373122755,304.30395195200003,11703.998152
1373123055,2174.992989913333,11703.998152
1373123355,216.52396581200003,11703.998152
1373123655,200.91863494266664,11703.998152
1373123955,237.98129575733333,11703.998152
1373124255,212.62263309466667,11703.998152
1373124555,236.0306293986667,11703.998152
1373124855,1199.65981058,11703.998152
1373125155,298.451952876,11703.998152
1373125455,212.62263309466667,11703.998152
1373125755,220.42529852933333,11703.998152
1373126055,234.07996304,11703.998152
1373126355,243.83329483333333,11703.998152
1373126655,827.0825360746667,11703.998152
1373126955,220.42529852933333,11703.998152
1373127255,296.5012865173333,11703.998152
1373127555,222.375964888,11703.998152
1373127855,197.0173022253333,11703.998152
1373128155,185.3133040733333,11703.998152
1373128455,706.1412218373334,11703.998152
1373128755,191.1653031493333,11703.998152
1373129055,214.57329945333333,11703.998152
1373129355,183.36263771466668,11703.998152
1373129655,183.36263771466668,11703.998152
1373129955,241.88262847466663,11703.998152
1373130255,2883.0848781093337,11703.998152
1373130555,3614.5847626093337,11703.998152
1373130855,1939.51969376,11703.998152
1373131155,1024.0998383,11703.998152
1373131455,797.8225406946667,11703.998152
1373131755,1461.049102641333,11703.998152
1373132055,1431.7891072613334,11703.998152
1373132355,1648.313073073333,11703.998152
1373132655,868.0465296066666,11703.998152
1373132955,628.1145674906666,11703.998152
1373133255,725.6478854239999,11703.998152
1373133555,596.903905752,11703.998152
1373133855,827.0825360746667,11703.998152
1373134155,932.4185194426666,11703.998152
1373134455,433.04793162400006,11703.998152
1373134756,399.8866035266667,11703.998152
1373135056,458.4065942866668,11703.998152
1373135356,477.9132578733333,11703.998152
1373135656,1494.210430738667,11703.998152
1373135956,1234.7718050360002,11703.998152
1373136256,1888.2450351893333,11703.998152
1373136556,1759.5010555173335,11703.998152
1373136856,1213.3144750906667,11703.998152
1373137156,1940.913026873333,11703.998152
1373137456,2065.755673828,11703.998152
1373137756,1260.1304676986667,11703.998152
1373138056,1689.2770666053332,11703.998152
1373138356,1747.797057365333,11703.998152
1373138656,1899.9490333413328,11703.998152
1373138956,2580.731592516,11703.998152
1373139256,2514.4089363213334,11703.998152
1373139556,1907.751698776,11703.998152
1373139856,1541.026423346667,11703.998152
1373140156,1472.753100793333,11703.998152
1373140456,1390.8251137293337,11703.998152
1373140756,1344.0091211213332,11703.998152
1373141056,2717.2782376226664,11703.998152
1373141356,1435.6904399786667,11703.998152
1373141656,1461.049102641333,11703.998152
1373141956,1107.9784917226666,11703.998152
1373142256,1472.753100793333,11703.998152
1373142556,938.2705185186664,11703.998152
1373142856,1182.103813352,11703.998152
1373143156,920.7145212906668,11703.998152
1373143456,1002.6425083546668,11703.998152
1373143756,846.44986635,11703.998152
1373144056,830.983868792,11703.998152
1373144356,1203.83980992,11703.998152
1373144656,1540.32975679,11703.998152
1373144956,573.495909448,11703.998152
1373145256,562.2099112299999,11703.998152
1373145556,662.52989539,11703.998152
1373145856,700.2892227613333,11703.998152
1373146156,865.2598633800001,11703.998152
1373146456,1496.43976372,11703.998152
1373146756,1241.45980398,11703.998152
1373147056,890.33985942,11703.998152
1373147356,1053.35983368,11703.998152
1373147657,741.94988285,11703.998152
1373147957,881.97986074,11703.998152
1373148257,1480.555766228,11703.998152
1373148557,879.88986107,11703.998152
1373148857,967.6698472100002,11703.998152
1373149157,773.2998779,11703.998152
1373149457,984.3898445699998,11703.998152
1373149757,595.6499059500001,11703.998152
1373150057,1256.08980167,11703.998152
1373150357,626.9999009999999,11703.998152
1373150657,545.48991387,11703.998152
1373150957,706.1412218373334,11703.998152
1373151257,790.0198752599999,11703.998152
1373151557,693.87989044,11703.998152
1373151857,1829.725044429333,11703.998152
1373152157,848.5398660200001,11703.998152
1373152457,987.0371774853334,11703.998152
1373152757,1080.5298293899998,11703.998152
1373153057,957.7771821053334,11703.998152
1373153357,1484.4570989453332,11703.998152
1373153657,1470.802434434667,11703.998152
1373153957,864.1451968893334,11703.998152
1373154257,536.4332486333333,11703.998152
1373154557,723.6972190653333,11703.998152
1373154857,690.535890968,11703.998152
1373155157,579.347908524,11703.998152
1373155457,2091.1143364906666,11703.998152
1373155757,1379.1211155773333,11703.998152
1373156057,1611.2504122586668,11703.998152
1373156357,1148.9424852546667,11703.998152
1373156657,1390.8251137293337,11703.998152
1373156957,1827.774378070667,11703.998152
1373157257,495.4692551013333,11703.998152
1373157557,786.1185425426665,11703.998152
1373157857,540.3345813506667,11703.998152
1373158157,481.8145905906667,11703.998152
1373158457,981.1851784093332,11703.998152
1373158757,916.8131885733336,11703.998152
1373159057,992.8891765613334,11703.998152
1373159357,368.675941788,11703.998152
1373159657,516.9265850466668,11703.998152
1373159957,606.6572375453334,11703.998152
1373160257,411.5906016786667,11703.998152
1373160557,380.37993994,11703.998152
1373160857,702.23988912,11703.998152
1373161157,442.8012634173333,11703.998152
1373161457,550.087913144,11703.998152
1373161757,485.7159233080001,11703.998152
1373162057,384.2812726573333,11703.998152
1373162357,581.2985748826667,11703.998152
1373162657,536.4332486333333,11703.998152
1373162957,331.6132809733333,11703.998152
1373163257,343.3172791253333,11703.998152
1373163557,528.6305831986666,11703.998152
1373163857,610.5585702626666,11703.998152
1373164157,421.343933472,11703.998152
1373164457,522.7785841226666,11703.998152
1373164757,727.5985517826666,11703.998152
1373165057,372.5772745053333,11703.998152
1373165357,403.787936244,11703.998152
1373165657,959.727848464,11703.998152
1373165957,946.0731839533332,11703.998152
1373166257,505.2225868946667,11703.998152
1373166557,536.4332486333333,11703.998152
1373166857,394.0346044506667,11703.998152
1373167157,635.9172329253333,11703.998152
1373167457,481.8145905906667,11703.998152
1373167757,431.09726526533336,11703.998152
1373168057,483.76525694933326,11703.998152
1373168357,676.8812264573334,11703.998152
1373168658,282.8466220066667,11703.998152
1373168958,507.1732532533333,11703.998152
1373169258,990.9385102026666,11703.998152
1373169558,1213.3144750906667,11703.998152
1373169858,764.6612125973334,11703.998152
1373170158,815.3785379226666,11703.998152
1373170458,946.0731839533332,11703.998152
1373170758,1051.4091673213336,11703.998152
1373171058,434.9985979826667,11703.998152
1373171358,360.87327635333327,11703.998152
1373171658,234.07996304,11703.998152
1373171958,436.9492643413333,11703.998152
1373172258,343.3172791253333,11703.998152
1373172558,561.791911296,11703.998152
1373172858,468.15992608,11703.998152
1373173158,376.4786072226667,11703.998152
1373173458,415.491934396,11703.998152
1373173758,280.895955648,11703.998152
1373174058,247.73462755066663,11703.998152
1373174358,323.8106155386667,11703.998152
1373174658,571.5452430893333,11703.998152
1373174958,337.46528004933333,11703.998152
1373175258,362.823942712,11703.998152
1373175558,237.98129575733333,11703.998152
1373175858,243.83329483333333,11703.998152
1373176158,232.12929668133333,11703.998152
1373176458,259.4386257026667,11703.998152
1373176758,694.4372236853333,11703.998152
1373177058,339.415946408,11703.998152
1373177358,429.14659890666667,11703.998152
1373177658,265.29062477866665,11703.998152
1373177958,421.343933472,11703.998152
1373178259,284.7972883653334,11703.998152
1373178559,479.863924232,11703.998152
1373178859,351.11994456,11703.998152
1373179159,481.8145905906667,11703.998152
1373179459,343.3172791253333,11703.998152
1373179759,407.6892689613333,11703.998152
1373180059,483.76525694933326,11703.998152
1373180359,249.68529390933327,11703.998152
1373180659,316.00795010400003,11703.998152
1373180959,259.4386257026667,11703.998152
1373181259,278.94528928933335,11703.998152
1373181559,403.787936244,11703.998152
1373181859,259.4386257026667,11703.998152
1373182159,257.487959344,11703.998152
1373182459,243.83329483333333,11703.998152
1373182759,411.5906016786667,11703.998152
1373183059,245.783961192,11703.998152
1373183359,557.8905785786667,11703.998152
1373183659,275.043956572,11703.998152
1373183959,263.33995842,11703.998152
1373184259,573.495909448,11703.998152
1373184559,267.2412911373333,11703.998152
1373184859,325.76128189733333,11703.998152
1373185159,294.5506201586667,11703.998152
1373185459,1115.7811571573334,11703.998152
1373185759,1055.3105000386663,11703.998152
1373186059,996.7905092786666,11703.998152
1373186359,1689.2770666053332,11703.998152
1373186659,2524.162268114667,11703.998152
1373186959,2689.968908601333,11703.998152
1373187259,3158.128834681333,11703.998152
1373187559,2680.215576808,11703.998152
1373187859,3074.2501812586665,11703.998152
1373188159,4576.263277432,11703.998152
1373188459,3072.2995149,11703.998152
1373188759,3706.2660814666665,11703.998152
1373189059,2986.4701951186667,11703.998152
1373189359,3187.388830061334,11703.998152
1373189660,3195.191495496,11703.998152
1373189960,4010.5700334186654,11703.998152
1373190260,4388.999307,11703.998152
1373190560,2986.4701951186667,11703.998152
1373190860,3492.38944857,11703.998152
1373191160,2918.1968725653337,11703.998152
1373191459,2857.726215446666,11703.998152
1373191759,2362.256960345333,11703.998152
1373192059,2444.1849474093337,11703.998152
1373192359,2442.2342810506666,11703.998152
1373192659,1414.233110033333,11703.998152
1373192959,2147.6836608920003,11703.998152
1373193259,2602.1889224613337,11703.998152
1373193559,2658.7582468626665,11703.998152
1373193859,3364.8994687,11703.998152
1373194159,2245.216978825333,11703.998152
1373194459,2477.346275506666,11703.998152
1373194759,1687.3264002466667,11703.998152
1373195060,1927.2583623626667,11703.998152
1373195360,2095.015669208,11703.998152
1373195660,1002.6425083546668,11703.998152
1373195960,1500.062429814667,11703.998152
1373196260,1541.026423346667,11703.998152
1373196560,1414.233110033333,11703.998152
1373196860,395.9852708093333,11703.998152
1373197160,698.3385564026665,11703.998152
1373197460,1164.5478161239998,11703.998152
1373197760,1067.0144981906667,11703.998152
1373198060,961.6785148226668,11703.998152
1373198360,269.191957496,11703.998152
1373198660,265.29062477866665,11703.998152
1373198960,269.191957496,11703.998152
1373199260,284.7972883653334,11703.998152
1373199560,1578.0890841613332,11703.998152
1373199860,540.3345813506667,11703.998152
1373200160,645.6705647186667,11703.998152
1373200460,731.4998845,11703.998152
1373200760,821.2305369986666,11703.998152
1373201060,1067.0144981906667,11703.998152
1373201360,1010.4451737893334,11703.998152
1373201660,598.8545721106667,11703.998152
1373201960,838.7865342266665,11703.998152
1373202260,1634.6584085626666,11703.998152
1373202560,1082.61982906,11703.998152
1373202860,1193.807811504,11703.998152
1373203160,1207.462476014667,11703.998152
1373203460,1669.770403018667,11703.998152
1373203760,1271.834465850667,11703.998152
1373204060,1552.7304214986666,11703.998152
1373204360,1472.753100793333,11703.998152
1373204661,1041.655835528,11703.998152
1373204961,413.5412680373333,11703.998152
1373205261,265.29062477866665,11703.998152
1373205561,314.0572837453333,11703.998152
1373205861,1578.0890841613332,11703.998152
1373206161,1714.635729268,11703.998152
1373206461,1269.883799492,11703.998152
1373206761,1316.6997921,11703.998152
1373207061,1952.6170250253333,11703.998152
1373207361,996.7905092786666,11703.998152
1373207661,1137.2384871026668,11703.998152
1373207961,883.651860476,11703.998152
1373208261,932.4185194426666,11703.998152
1373208561,856.3425314546666,11703.998152
1373208861,969.4811802573332,11703.998152
1373209161,891.4545259106666,11703.998152
1373209461,5040.034204205,11703.998152
1373209761,2617.7942533306664,11703.998152
1373210061,2524.162268114667,11703.998152
1373210361,1784.8597181799998,11703.998152
1373210661,790.0198752599999,11703.998152
1373210961,214.57329945333333,11703.998152
1373211261,1076.767829984,11703.998152
1373211561,269.191957496,11703.998152
1373211861,236.0306293986667,11703.998152
1373212161,224.32663124666664,11703.998152
1373212461,237.98129575733333,11703.998152
1373212761,243.83329483333333,11703.998152
1373213062,840.7372005853333,11703.998152
1373213362,243.83329483333333,11703.998152
1373213662,265.29062477866665,11703.998152
1373213962,273.0932902133334,11703.998152
1373214262,308.20528466933337,11703.998152
1373214562,310.155951028,11703.998152
1373214862,481.8145905906667,11703.998152
1373215162,265.29062477866665,11703.998152
1373215462,237.98129575733333,11703.998152
1373215762,255.53729298533332,11703.998152
1373216062,228.227963964,11703.998152
1373216362,230.17863032266663,11703.998152
1373216662,1221.1171405253333,11703.998152
1373216962,239.931962116,11703.998152
1373217262,263.33995842,11703.998152
1373217562,261.3892920613333,11703.998152
1373217862,265.29062477866665,11703.998152
1373218162,275.043956572,11703.998152
1373218462,2606.0902551786667,11703.998152
1373218762,1028.0011710173335,11703.998152
1373219062,912.911855856,11703.998152
1373219362,275.043956572,11703.998152
1373219662,280.895955648,11703.998152
1373219962,257.487959344,11703.998152
1373220262,1384.9731146533334,11703.998152
1373220562,877.7998613999999,11703.998152
1373220862,1546.8784224226663,11703.998152
1373221162,928.5171867253332,11703.998152
1373221462,774.4145443906666,11703.998152
1373221762,928.5171867253332,11703.998152
1373222062,1576.1384178026667,11703.998152
1373222362,893.4051922693334,11703.998152
1373222662,1480.555766228,11703.998152
1373222963,298.451952876,11703.998152
1373223263,448.6532624933333,11703.998152
1373223563,241.88262847466663,11703.998152
1373223863,1459.0984362826669,11703.998152
1373224162,236.0306293986667,11703.998152
1373224462,234.07996304,11703.998152
1373224762,214.57329945333333,11703.998152
1373225062,278.94528928933335,11703.998152
1373225362,212.62263309466667,11703.998152
1373225662,938.2705185186664,11703.998152
1373225962,241.88262847466663,11703.998152
1373226262,243.83329483333333,11703.998152
1373226562,234.07996304,11703.998152
1373226862,253.58662662666663,11703.998152
1373227162,269.191957496,11703.998152
1373227462,2520.260935397333,11703.998152
1373227762,452.55459521066666,11703.998152
1373228062,530.5812495573333,11703.998152
1373228362,317.95861646266667,11703.998152
1373228662,323.8106155386667,11703.998152
1373228963,257.487959344,11703.998152
1373229263,678.831892816,11703.998152
1373229563,522.7785841226666,11703.998152
1373229863,434.9985979826667,11703.998152
1373230163,1821.9223789946668,11703.998152
1373230463,1948.715692308,11703.998152
1373230763,1613.2010786173332,11703.998152
1373231063,1593.694415030667,11703.998152
1373231363,1059.211832756,11703.998152
1373231663,1423.9864418266668,11703.998152
1373231963,961.6785148226668,11703.998152
1373232263,464.25859336266666,11703.998152
1373232563,565.6932440133334,11703.998152
1373232863,1636.609074921333,11703.998152
1373233163,768.5625453146666,11703.998152
1373233463,567.6439103719999,11703.998152
1373233763,688.5852246093334,11703.998152
1373234063,961.6785148226668,11703.998152
1373234363,665.1772283053334,11703.998152
1373234663,1521.5197597600002,11703.998152
1373234963,951.9251830293332,11703.998152
1373235263,848.5398660200001,11703.998152
1373235563,920.7145212906668,11703.998152
1373235863,1232.8211386773337,11703.998152
1373236163,858.2931978133333,11703.998152
1373236463,686.6345582506666,11703.998152
1373236763,245.783961192,11703.998152
1373237063,472.0612587973334,11703.998152
1373237363,261.3892920613333,11703.998152
1373237663,717.8452199893334,11703.998152
1373237964,470.1105924386666,11703.998152
1373238264,1244.5251368293334,11703.998152
1373238564,653.4732301533335,11703.998152
1373238864,275.043956572,11703.998152
1373239164,278.94528928933335,11703.998152
1373239464,421.343933472,11703.998152
1373239764,916.8131885733336,11703.998152
1373240064,1607.3490795413331,11703.998152
1373240364,1429.838440902667,11703.998152
1373240664,1406.4304445986668,11703.998152
1373240964,953.875849388,11703.998152
1373241264,446.7025961346667,11703.998152
1373241564,351.11994456,11703.998152
1373241864,2288.131638716,11703.998152
1373242164,2530.0142671906665,11703.998152
1373242464,1523.4704261186666,11703.998152
1373242764,1318.650458458667,11703.998152
1373243064,1492.2597643800002,11703.998152
1373243364,1094.323827212,11703.998152
1373243664,1336.206455686667,11703.998152
1373243964,1236.7224713946669,11703.998152
1373244264,981.1851784093332,11703.998152
1373244564,222.375964888,11703.998152
1373244864,245.783961192,11703.998152
1373245164,294.5506201586667,11703.998152
1373245464,460.3572606453333,11703.998152
1373245764,284.7972883653334,11703.998152
1373246064,362.823942712,11703.998152
1373246364,271.1426238546666,11703.998152
1373246664,267.2412911373333,11703.998152
1373246965,343.3172791253333,11703.998152
1373247265,372.5772745053333,11703.998152
1373247565,271.1426238546666,11703.998152
1373247865,222.375964888,11703.998152
1373248165,230.17863032266663,11703.998152
1373248465,247.73462755066663,11703.998152
1373248765,608.6079039040001,11703.998152
1373249065,922.6651876493332,11703.998152
1373249365,290.64928744133334,11703.998152
1373249665,308.20528466933337,11703.998152
1373249965,273.0932902133334,11703.998152
1373250265,308.20528466933337,11703.998152
1373250565,286.747954724,11703.998152
1373250865,840.7372005853333,11703.998152
1373251165,869.9971959653334,11703.998152
1373251465,286.747954724,11703.998152
1373251765,257.487959344,11703.998152
1373252065,280.895955648,11703.998152
1373252365,247.73462755066663,11703.998152
1373252665,774.4145443906666,11703.998152
1373252965,1689.2770666053332,11703.998152
1373253265,975.3331793333334,11703.998152
1373253565,1318.650458458667,11703.998152
1373253865,1498.1117634560003,11703.998152
1373254165,386.231939016,11703.998152
1373254465,1092.3731608533335,11703.998152
1373254765,263.33995842,11703.998152
1373255065,228.227963964,11703.998152
1373255365,271.1426238546666,11703.998152
1373255666,265.29062477866665,11703.998152
1373255966,232.12929668133333,11703.998152
1373256266,267.2412911373333,11703.998152
1373256566,286.747954724,11703.998152
1373256865,491.567922384,11703.998152
1373257165,241.88262847466663,11703.998152
1373257465,236.0306293986667,11703.998152
1373257765,224.32663124666664,11703.998152
1373258065,204.81996766,11703.998152
1373258365,241.88262847466663,11703.998152
1373258665,249.68529390933327,11703.998152
1373258965,329.66261461466667,11703.998152
1373259265,259.4386257026667,11703.998152
1373259565,294.5506201586667,11703.998152
1373259865,269.191957496,11703.998152
1373260165,261.3892920613333,11703.998152
1373260465,236.0306293986667,11703.998152
1373260766,251.635960268,11703.998152
1373261066,247.73462755066663,11703.998152
1373261366,230.17863032266663,11703.998152
1373261666,243.83329483333333,11703.998152
1373261966,251.635960268,11703.998152
1373262266,230.17863032266663,11703.998152
1373262566,292.5999538,11703.998152
1373262866,257.487959344,11703.998152
1373263166,245.783961192,11703.998152
1373263466,276.99462293066665,11703.998152
1373263766,237.98129575733333,11703.998152
1373264066,261.3892920613333,11703.998152
1373264366,275.043956572,11703.998152
1373264666,288.6986210826667,11703.998152
1373264966,224.32663124666664,11703.998152
1373265266,282.8466220066667,11703.998152
1373265566,261.3892920613333,11703.998152
1373265866,306.2546183106667,11703.998152
1373266166,282.8466220066667,11703.998152
1373266466,300.4026192346667,11703.998152
1373266766,288.6986210826667,11703.998152
1373267066,271.1426238546666,11703.998152
1373267366,294.5506201586667,11703.998152
1373267666,273.0932902133334,11703.998152
1373267967,273.0932902133334,11703.998152
1373268267,257.487959344,11703.998152
1373268567,304.30395195200003,11703.998152
1373268867,269.191957496,11703.998152
1373269167,247.73462755066663,11703.998152
1373269467,327.711948256,11703.998152
1373269767,321.85994918,11703.998152
1373270067,316.00795010400003,11703.998152
1373270367,312.1066173866667,11703.998152
1373270667,809.5265388466667,11703.998152
1373270967,284.7972883653334,11703.998152
1373271267,323.8106155386667,11703.998152
1373271567,327.711948256,11703.998152
1373271867,239.931962116,11703.998152
1373272167,267.2412911373333,11703.998152
1373272467,257.487959344,11703.998152
1373272767,292.5999538,11703.998152
1373273067,298.451952876,11703.998152
1373273367,314.0572837453333,11703.998152
1373273667,284.7972883653334,11703.998152
1373273967,276.99462293066665,11703.998152
1373274267,282.8466220066667,11703.998152
1373274567,635.9172329253333,11703.998152
1373274867,220.42529852933333,11703.998152
1373275167,249.68529390933327,11703.998152
1373275467,3764.786072226666,11703.998152
1373275767,573.495909448,11703.998152
1373276067,239.931962116,11703.998152
1373276367,232.12929668133333,11703.998152
1373276667,472.0612587973334,11703.998152
1373276967,409.63993532,11703.998152
1373277267,261.3892920613333,11703.998152
1373277567,206.77063401866667,11703.998152
1373277867,212.62263309466667,11703.998152
1373278167,275.043956572,11703.998152
1373278467,251.635960268,11703.998152
1373278768,226.27729760533333,11703.998152
1373279068,220.42529852933333,11703.998152
1373279368,265.29062477866665,11703.998152
1373279668,290.64928744133334,11703.998152
1373279968,294.5506201586667,11703.998152
1373280268,255.53729298533332,11703.998152
1373280568,247.73462755066663,11703.998152
1373280868,255.53729298533332,11703.998152
1373281168,210.671966736,11703.998152
1373281468,717.8452199893334,11703.998152
1373281768,216.52396581200003,11703.998152
1373282068,249.68529390933327,11703.998152
1373282368,232.12929668133333,11703.998152
1373282668,236.0306293986667,11703.998152
1373282968,237.98129575733333,11703.998152
1373283268,253.58662662666663,11703.998152
1373283568,208.72130037733336,11703.998152
1373283868,263.33995842,11703.998152
1373284168,275.043956572,11703.998152
1373284468,253.58662662666663,11703.998152
1373284768,278.94528928933335,11703.998152
1373285068,278.94528928933335,11703.998152
1373285368,288.6986210826667,11703.998152
1373285668,282.8466220066667,11703.998152
1373285968,860.243864172,11703.998152
1373286268,610.5585702626666,11703.998152
1373286568,214.57329945333333,11703.998152
1373286868,230.17863032266663,11703.998152
1373287168,222.375964888,11703.998152
1373287468,206.77063401866667,11703.998152
1373287768,195.06663586666664,11703.998152
1373288068,232.12929668133333,11703.998152
1373288368,220.42529852933333,11703.998152
1373288668,251.635960268,11703.998152
1373288968,243.83329483333333,11703.998152
1373289268,241.88262847466663,11703.998152
1373289568,257.487959344,11703.998152
1373289868,401.8372698853333,11703.998152
1373290168,224.32663124666664,11703.998152
1373290468,241.88262847466663,11703.998152
1373290768,265.29062477866665,11703.998152
1373291068,247.73462755066663,11703.998152
1373291368,310.155951028,11703.998152
1373291668,245.783961192,11703.998152
1373291968,275.043956572,11703.998152
1373292268,809.5265388466667,11703.998152
1373292569,224.32663124666664,11703.998152
1373292869,236.0306293986667,11703.998152
1373293169,273.0932902133334,11703.998152
1373293469,1178.2024806346667,11703.998152
1373293769,290.64928744133334,11703.998152
1373294069,464.25859336266666,11703.998152
1373294369,200.91863494266664,11703.998152
1373294669,208.72130037733336,11703.998152
1373294969,222.375964888,11703.998152
1373295269,216.52396581200003,11703.998152
1373295569,230.17863032266663,11703.998152
1373295869,2358.355627628,11703.998152
1373296169,236.0306293986667,11703.998152
1373296469,208.72130037733336,11703.998152
1373296769,206.77063401866667,11703.998152
1373297069,230.17863032266663,11703.998152
1373297369,269.191957496,11703.998152
1373297669,1306.946460306667,11703.998152
1373297969,2286.1809723573333,11703.998152
1373298269,2005.2850167093327,11703.998152
1373298569,1505.9144288906668,11703.998152
1373298869,1068.9651645493332,11703.998152
1373299169,216.52396581200003,11703.998152
1373299469,850.4905323786667,11703.998152
1373299769,1053.35983368,11703.998152
1373300069,1782.9090518213332,11703.998152
1373300369,2161.3383254026667,11703.998152
1373300669,475.96259151466666,11703.998152
1373300969,245.783961192,11703.998152
1373301269,655.4238965119999,11703.998152
1373301570,278.94528928933335,11703.998152
1373301870,216.52396581200003,11703.998152
1373302170,214.57329945333333,11703.998152
1373302470,214.57329945333333,11703.998152
1373302770,228.227963964,11703.998152
1373303070,1228.91980596,11703.998152
1373303370,224.32663124666664,11703.998152
1373303670,257.487959344,11703.998152
1373303970,265.29062477866665,11703.998152
1373304270,232.12929668133333,11703.998152
1373304570,249.68529390933327,11703.998152
1373304870,2130.127663664,11703.998152
1373305170,3089.855512128,11703.998152
1373305470,1000.691841996,11703.998152
1373305770,1074.8171636253333,11703.998152
1373306070,778.315877108,11703.998152
1373306370,1135.287820744,11703.998152
1373306670,2016.989014861333,11703.998152
1373306970,1638.55974128,11703.998152
1373307270,325.76128189733333,11703.998152
1373307570,335.5146136906667,11703.998152
1373307870,850.4905323786667,11703.998152
1373308170,1390.8251137293337,11703.998152
1373308470,3764.786072226666,11703.998152
1373308770,1950.6663586666668,11703.998152
1373309070,1554.6810878573335,11703.998152
1373309370,1769.2543873106667,11703.998152
1373309670,1560.5330869333332,11703.998152
1373309970,1650.263739432,11703.998152
1373310270,2059.903674752,11703.998152
1373310570,758.8092135213333,11703.998152
1373310870,1057.2611663973332,11703.998152
1373311170,2042.347677524,11703.998152
1373311470,2050.1503429586664,11703.998152
1373311770,2083.3116710560003,11703.998152
1373312070,2120.3743318706665,11703.998152
1373312370,1661.967737584,11703.998152
1373312670,273.0932902133334,11703.998152
1373312970,220.42529852933333,11703.998152
1373313270,218.47463217066667,11703.998152
1373313571,179.46130499733334,11703.998152
1373313871,2354.4542949106667,11703.998152
1373314171,1271.834465850667,11703.998152
1373314471,1092.3731608533335,11703.998152
1373314771,803.6745397706666,11703.998152
1373315071,1695.1290656813333,11703.998152
1373315371,1833.626377146667,11703.998152
1373315671,2153.535659968,11703.998152
1373315971,928.5171867253332,11703.998152
1373316271,604.7065711866667,11703.998152
1373316571,593.0025730346666,11703.998152
1373316871,419.39326711333325,11703.998152
1373317171,639.8185656426666,11703.998152
1373317471,723.6972190653333,11703.998152
1373317771,834.8852015093335,11703.998152
1373318071,706.1412218373334,11703.998152
1373318371,384.2812726573333,11703.998152
1373318671,394.0346044506667,11703.998152
1373318971,801.723873412,11703.998152
1373319271,1622.9544104106667,11703.998152
1373319571,842.687866944,11703.998152
1373319871,803.6745397706666,11703.998152
1373320171,462.307927004,11703.998152
1373320471,2020.8903475786667,11703.998152
1373320771,821.2305369986666,11703.998152
1373321071,850.4905323786667,11703.998152
1373321371,349.16927820133327,11703.998152
1373321671,349.16927820133327,11703.998152
1373321971,1094.323827212,11703.998152
1373322271,372.5772745053333,11703.998152
1373322571,604.7065711866667,11703.998152
1373322871,645.6705647186667,11703.998152
1373323171,1205.5118096560002,11703.998152
1373323471,464.25859336266666,11703.998152
1373323771,505.2225868946667,11703.998152
1373324071,2081.361004697333,11703.998152
1373324371,1158.695817048,11703.998152
1373324671,1057.2611663973332,11703.998152
1373324971,643.71989836,11703.998152
1373325271,1679.523734812,11703.998152
1373325571,2104.769001001333,11703.998152
1373325871,355.0212772773333,11703.998152
1373326171,836.835867868,11703.998152
1373326472,850.4905323786667,11703.998152
1373326772,444.751929776,11703.998152
1373327072,271.1426238546666,11703.998152
1373327372,228.227963964,11703.998152
1373327672,255.53729298533332,11703.998152
1373327972,282.8466220066667,11703.998152
1373328272,2026.7423466546668,11703.998152
1373328572,1301.0944612306669,11703.998152
1373328872,981.1851784093332,11703.998152
1373329172,680.7825591746666,11703.998152
1373329472,729.5492181413334,11703.998152
1373329772,1004.5931747133334,11703.998152
1373330072,739.3025499346666,11703.998152
1373330372,875.8491950413332,11703.998152
1373330672,1312.7984593826666,11703.998152
1373330972,1174.3011479173333,11703.998152
1373331272,411.5906016786667,11703.998152
1373331572,466.2092597213333,11703.998152
1373331872,690.535890968,11703.998152
1373332172,542.2852477093332,11703.998152
1373332472,509.123919612,11703.998152
1373332772,936.31985216,11703.998152
1373333072,977.283845692,11703.998152
1373333372,362.823942712,11703.998152
1373333672,573.495909448,11703.998152
1373333972,407.6892689613333,11703.998152
1373334272,310.155951028,11703.998152
1373334573,237.98129575733333,11703.998152
1373334873,267.2412911373333,11703.998152
1373335173,271.1426238546666,11703.998152
1373335473,825.131869716,11703.998152
1373335773,271.1426238546666,11703.998152
1373336073,271.1426238546666,11703.998152
1373336373,302.35328559333334,11703.998152
1373336673,251.635960268,11703.998152
1373336973,306.2546183106667,11703.998152
1373337273,440.85059705866666,11703.998152
1373337572,563.7425776546667,11703.998152
1373337872,661.275895588,11703.998152
1373338172,542.2852477093332,11703.998152
1373338473,546.1865804266668,11703.998152
1373338773,813.427871564,11703.998152
1373339073,1123.583822592,11703.998152
1373339373,1383.022448294667,11703.998152
1373339673,1753.6490564413334,11703.998152
1373339973,836.835867868,11703.998152
1373340273,1221.1171405253333,11703.998152
1373340573,903.1585240626664,11703.998152
1373340873,2840.170218218667,11703.998152
1373341173,2112.571666436,11703.998152
1373341473,2054.051675676,11703.998152
1373341773,2124.275664588,11703.998152
1373342073,1779.0077191039998,11703.998152
1373342373,2137.9303290986663,11703.998152
1373342673,2412.974285670666,11703.998152
1373342973,2578.7809261573334,11703.998152
1373343273,661.275895588,11703.998152
1373343573,243.83329483333333,11703.998152
1373343873,255.53729298533332,11703.998152
1373344173,175.55997228,11703.998152
1373344473,197.0173022253333,11703.998152
1373344773,210.671966736,11703.998152
1373345073,245.783961192,11703.998152
1373345373,204.81996766,11703.998152
1373345673,208.72130037733336,11703.998152
1373345973,210.671966736,11703.998152
1373346274,269.191957496,11703.998152
1373346574,237.98129575733333,11703.998152
1373346874,236.0306293986667,11703.998152
1373347174,239.931962116,11703.998152
1373347474,230.17863032266663,11703.998152
1373347774,249.68529390933327,11703.998152
1373348074,222.375964888,11703.998152
1373348374,255.53729298533332,11703.998152
1373348674,218.47463217066667,11703.998152
1373348974,228.227963964,11703.998152
1373349274,236.0306293986667,11703.998152
1373349574,251.635960268,11703.998152
1373349874,210.671966736,11703.998152
1373350174,241.88262847466663,11703.998152
1373350474,234.07996304,11703.998152
1373350774,239.931962116,11703.998152
1373351074,218.47463217066667,11703.998152
1373351374,220.42529852933333,11703.998152
1373351674,206.77063401866667,11703.998152
1373351974,230.17863032266663,11703.998152
1373352274,265.29062477866665,11703.998152
1373352574,228.227963964,11703.998152
1373352874,243.83329483333333,11703.998152
1373353174,228.227963964,11703.998152
1373353474,261.3892920613333,11703.998152
1373353774,195.06663586666664,11703.998152
1373354074,191.1653031493333,11703.998152
1373354374,202.8693013013333,11703.998152
1373354674,237.98129575733333,11703.998152
1373354974,245.783961192,11703.998152
1373355274,245.783961192,11703.998152
1373355574,236.0306293986667,11703.998152
1373355874,195.06663586666664,11703.998152
1373356174,200.91863494266664,11703.998152
1373356474,251.635960268,11703.998152
1373356774,208.72130037733336,11703.998152
1373357074,729.5492181413334,11703.998152
1373357374,230.17863032266663,11703.998152
1373357674,224.32663124666664,11703.998152
1373357974,230.17863032266663,11703.998152
1373358275,255.53729298533332,11703.998152
1373358575,247.73462755066663,11703.998152
1373358875,200.91863494266664,11703.998152
1373359175,237.98129575733333,11703.998152
1373359475,226.27729760533333,11703.998152
1373359775,214.57329945333333,11703.998152
1373360075,222.375964888,11703.998152
1373360375,232.12929668133333,11703.998152
1373360675,292.5999538,11703.998152
1373360975,263.33995842,11703.998152
1373361275,212.62263309466667,11703.998152
1373361575,222.375964888,11703.998152
1373361875,2411.0236193120004,11703.998152
1373362175,4757.675248787999,11703.998152
1373362475,4437.765965966667,11703.998152
1373362775,4855.208566721332,11703.998152
1373363075,4281.712657273334,11703.998152
1373363375,3454.6301211986665,11703.998152
1373363675,2955.25953338,11703.998152
1373363975,1763.402388234667,11703.998152
1373364275,1519.5690934013337,11703.998152
1373364575,1014.3465065066666,11703.998152
1373364875,951.9251830293332,11703.998152
1373365175,1055.3105000386663,11703.998152
1373365475,374.5279408640001,11703.998152
1373365775,292.5999538,11703.998152
1373366076,294.5506201586667,11703.998152
1373366376,241.88262847466663,11703.998152
1373366676,241.88262847466663,11703.998152
1373366976,243.83329483333333,11703.998152
1373367276,218.47463217066667,11703.998152
1373367576,298.451952876,11703.998152
1373367876,448.6532624933333,11703.998152
1373368176,273.0932902133334,11703.998152
1373368476,239.931962116,11703.998152
1373368776,265.29062477866665,11703.998152
1373369076,243.83329483333333,11703.998152
1373369376,255.53729298533332,11703.998152
1373369676,275.043956572,11703.998152
1373369976,296.5012865173333,11703.998152
1373370276,234.07996304,11703.998152
1373370576,251.635960268,11703.998152
1373370876,226.27729760533333,11703.998152
1373371176,239.931962116,11703.998152
1373371476,253.58662662666663,11703.998152
1373371776,237.98129575733333,11703.998152
1373372076,251.635960268,11703.998152
1373372376,665.1772283053334,11703.998152
1373372676,823.4598699799999,11703.998152
1373372976,204.81996766,11703.998152
1373373276,211.08996667,11703.998152
1373373576,218.47463217066667,11703.998152
1373373876,246.61996106000004,11703.998152
1373374176,241.88262847466663,11703.998152
1373374476,251.635960268,11703.998152
1373374776,244.52996138999995,11703.998152
1373375076,234.07996304,11703.998152
1373375376,214.57329945333333,11703.998152
1373375676,204.81996766,11703.998152
1373375976,219.44996535,11703.998152
1373376276,459.7999274,11703.998152
1373376577,218.47463217066667,11703.998152
1373376877,273.78995676999995,11703.998152
1373377177,284.23995512000005,11703.998152
1373377477,220.42529852933333,11703.998152
1373377777,247.73462755066663,11703.998152
1373378077,255.53729298533332,11703.998152
1373378377,267.51995776,11703.998152
1373378677,977.283845692,11703.998152
1373378977,1809.93971422,11703.998152
1373379277,1927.2583623626667,11703.998152
1373379577,1882.393036113333,11703.998152
1373379877,1301.0944612306669,11703.998152
1373380177,296.5012865173333,11703.998152
1373380477,370.6266081466667,11703.998152
1373380777,230.17863032266663,11703.998152
1373381077,193.115969508,11703.998152
1373381377,267.2412911373333,11703.998152
1373381677,208.72130037733336,11703.998152
1373381977,267.2412911373333,11703.998152
1373382277,2282.27963964,11703.998152
1373382577,224.32663124666664,11703.998152
1373382877,247.73462755066663,11703.998152
1373383177,241.88262847466663,11703.998152
1373383477,282.8466220066667,11703.998152
1373383777,237.98129575733333,11703.998152
1373384077,1152.843817972,11703.998152
1373384377,204.81996766,11703.998152
1373384677,220.42529852933333,11703.998152
1373384977,245.783961192,11703.998152
1373385277,218.47463217066667,11703.998152
1373385577,218.47463217066667,11703.998152
1373385877,797.8225406946667,11703.998152
1373386177,200.91863494266664,11703.998152
1373386477,247.73462755066663,11703.998152
1373386777,218.47463217066667,11703.998152
1373387077,251.635960268,11703.998152
1373387377,198.967968584,11703.998152
1373387677,606.6572375453334,11703.998152
1373387977,189.21463679066667,11703.998152
1373388277,273.0932902133334,11703.998152
1373388577,290.64928744133334,11703.998152
1373388877,195.06663586666664,11703.998152
1373389178,216.52396581200003,11703.998152
1373389478,1262.0811340573334,11703.998152
1373389778,1866.787705244,11703.998152
1373390078,1806.317048125333,11703.998152
1373390378,1728.2903937786668,11703.998152
1373390678,1605.398413182667,11703.998152
1373390978,1564.4344196506668,11703.998152
1373391278,3567.768770001333,11703.998152
1373391578,2485.1489409413334,11703.998152
1373391878,1819.971712636,11703.998152
1373392178,1521.5197597600002,11703.998152
1373392478,1991.6303521986667,11703.998152
1373392778,2184.746321706667,11703.998152
1373393078,2048.1996766,11703.998152
1373393378,1205.5118096560002,11703.998152
1373393678,1400.5784455226667,11703.998152
1373393978,910.9611894973334,11703.998152
1373394278,1002.6425083546668,11703.998152
1373394578,1402.5291118813332,11703.998152
1373394878,2520.260935397333,11703.998152
1373395178,1316.6997921,11703.998152
1373395478,1566.3850860093332,11703.998152
1373395778,1494.210430738667,11703.998152
1373396078,639.8185656426666,11703.998152
1373396378,214.57329945333333,11703.998152
1373396678,2555.372929853333,11703.998152
1373396978,1008.4945074306668,11703.998152
1373397278,542.2852477093332,11703.998152
1373397578,222.375964888,11703.998152
1373397878,210.671966736,11703.998152
1373398178,485.7159233080001,11703.998152
1373398478,965.57984754,11703.998152
1373398779,290.64928744133334,11703.998152
1373399079,321.85994918,11703.998152
1373399379,236.0306293986667,11703.998152
1373399679,247.73462755066663,11703.998152
1373399979,232.12929668133333,11703.998152
1373400279,2730.9329021333338,11703.998152
1373400579,926.5665203666666,11703.998152
1373400879,1492.2597643800002,11703.998152
1373401179,1078.7184963426666,11703.998152
1373401479,2091.1143364906666,11703.998152
1373401779,1942.8636932320003,11703.998152
1373402079,2327.144965889333,11703.998152
1373402379,1283.5384640026668,11703.998152
1373402679,436.9492643413333,11703.998152
1373402979,587.1505739586667,11703.998152
1373403279,784.1678761840001,11703.998152
1373403579,288.6986210826667,11703.998152
1373403879,979.2345120506668,11703.998152
1373404179,934.3691858013334,11703.998152
1373404479,1193.807811504,11703.998152
1373404780,762.7105462386667,11703.998152
1373405080,1000.691841996,11703.998152
1373405380,1137.2384871026668,11703.998152
1373405680,1377.1704492186668,11703.998152
1373405980,1258.17980134,11703.998152
1373406280,386.231939016,11703.998152
1373406580,296.5012865173333,11703.998152
1373406880,364.7746090706667,11703.998152
1373407180,216.52396581200003,11703.998152
1373407480,1548.8290887813332,11703.998152
1373407780,440.85059705866666,11703.998152
1373408080,495.4692551013333,11703.998152
1373408380,243.83329483333333,11703.998152
1373408680,298.451952876,11703.998152
1373408980,308.20528466933337,11703.998152
1373409280,1342.0584547626668,11703.998152
1373409580,294.5506201586667,11703.998152
1373409880,616.4105693386667,11703.998152
1373410180,273.0932902133334,11703.998152
1373410480,278.94528928933335,11703.998152
1373410780,263.33995842,11703.998152
1373411080,1755.5997228,11703.998152
1373411380,386.231939016,11703.998152
1373411680,751.0065480866666,11703.998152
1373411980,618.3612356973334,11703.998152
1373412280,1092.3731608533335,11703.998152
1373412580,694.4372236853333,11703.998152
1373412880,899.2571913453335,11703.998152
1373413180,674.9305600986667,11703.998152
1373413480,474.011925156,11703.998152
1373413781,1137.2384871026668,11703.998152
1373414081,255.53729298533332,11703.998152
1373414381,306.2546183106667,11703.998152
1373414681,2319.3423004546667,11703.998152
1373414981,1332.3051229693333,11703.998152
1373415281,1851.1823743746668,11703.998152
1373415581,1090.4224944946666,11703.998152
1373415881,228.227963964,11703.998152
1373416181,405.7386026026667,11703.998152
1373416481,920.7145212906668,11703.998152
1373416781,942.171851236,11703.998152
1373417081,1492.2597643800002,11703.998152
1373417381,1248.4264695466668,11703.998152
1373417681,1246.475803188,11703.998152
1373417981,895.355858628,11703.998152
1373418281,733.4505508586667,11703.998152
1373418581,253.58662662666663,11703.998152
1373418881,239.931962116,11703.998152
1373419181,316.00795010400003,11703.998152
1373419481,351.11994456,11703.998152
1373419781,200.91863494266664,11703.998152
1373420081,374.5279408640001,11703.998152
1373420381,382.3306062986667,11703.998152
1373420681,298.451952876,11703.998152
1373420981,259.4386257026667,11703.998152
1373421281,220.42529852933333,11703.998152
1373421581,236.0306293986667,11703.998152
1373421881,860.243864172,11703.998152
1373422181,290.64928744133334,11703.998152
1373422481,265.29062477866665,11703.998152
1373422781,249.68529390933327,11703.998152
1373423081,218.47463217066667,11703.998152
1373423381,236.0306293986667,11703.998152
1373423681,752.9572144453334,11703.998152
1373423981,505.2225868946667,11703.998152
1373424281,230.17863032266663,11703.998152
1373424581,374.5279408640001,11703.998152
1373424881,241.88262847466663,11703.998152
1373425181,251.635960268,11703.998152
1373425481,1225.0184732426667,11703.998152
1373425781,1500.062429814667,11703.998152
1373426081,536.4332486333333,11703.998152
1373426381,672.97989374,11703.998152
1373426681,1601.497080465333,11703.998152
1373426981,1673.671735736,11703.998152
1373427281,2545.61959806,11703.998152
1373427581,2104.769001001333,11703.998152
1373427882,1548.8290887813332,11703.998152
1373428182,1855.083707092,11703.998152
1373428482,2167.1903244786668,11703.998152
1373428782,251.635960268,11703.998152
1373429082,286.747954724,11703.998152
1373429382,234.07996304,11703.998152
1373429682,230.17863032266663,11703.998152
1373429982,263.33995842,11703.998152
1373430282,278.94528928933335,11703.998152
1373430582,245.783961192,11703.998152
1373430882,251.635960268,11703.998152
1373431182,257.487959344,11703.998152
1373431482,273.0932902133334,11703.998152
1373431782,290.64928744133334,11703.998152
1373432082,278.94528928933335,11703.998152
1373432382,220.42529852933333,11703.998152
1373432682,300.4026192346667,11703.998152
1373432982,308.20528466933337,11703.998152
1373433282,234.07996304,11703.998152
1373433582,228.227963964,11703.998152
1373433882,232.12929668133333,11703.998152
1373434182,239.931962116,11703.998152
1373434482,267.2412911373333,11703.998152
1373434782,271.1426238546666,11703.998152
1373435082,273.0932902133334,11703.998152
1373435382,200.91863494266664,11703.998152
1373435682,290.64928744133334,11703.998152
1373435982,216.52396581200003,11703.998152
1373436282,257.487959344,11703.998152
1373436582,243.83329483333333,11703.998152
1373436882,271.1426238546666,11703.998152
1373437182,269.191957496,11703.998152
1373437482,331.6132809733333,11703.998152
1373437782,247.73462755066663,11703.998152
1373438082,284.7972883653334,11703.998152
1373438382,282.8466220066667,11703.998152
1373438682,286.747954724,11703.998152
1373438982,347.21861184266663,11703.998152
1373439282,267.2412911373333,11703.998152
1373439582,310.155951028,11703.998152
1373439883,290.64928744133334,11703.998152
1373440183,218.47463217066667,11703.998152
1373440483,255.53729298533332,11703.998152
1373440783,310.155951028,11703.998152
1373441083,236.0306293986667,11703.998152
1373441383,259.4386257026667,11703.998152
1373441683,230.17863032266663,11703.998152
1373441983,288.6986210826667,11703.998152
1373442283,290.64928744133334,11703.998152
1373442583,276.99462293066665,11703.998152
1373442883,319.9092828213333,11703.998152
1373443183,304.30395195200003,11703.998152
1373443483,672.97989374,11703.998152
1373443783,241.88262847466663,11703.998152
1373444083,310.155951028,11703.998152
1373444383,271.1426238546666,11703.998152
1373444683,282.8466220066667,11703.998152
1373444983,304.30395195200003,11703.998152
1373445283,269.191957496,11703.998152
1373445583,265.29062477866665,11703.998152
1373445883,292.5999538,11703.998152
1373446183,286.747954724,11703.998152
1373446483,296.5012865173333,11703.998152
1373446783,327.711948256,11703.998152
1373447083,296.5012865173333,11703.998152
1373447383,263.33995842,11703.998152
1373447683,234.07996304,11703.998152
1373447983,298.451952876,11703.998152
1373448283,3388.3074650040003,11703.998152
1373448583,257.487959344,11703.998152
1373448883,234.07996304,11703.998152
1373449183,310.155951028,11703.998152
1373449484,466.2092597213333,11703.998152
1373449784,513.0252523293333,11703.998152
1373450084,255.53729298533332,11703.998152
1373450384,218.47463217066667,11703.998152
1373450684,269.191957496,11703.998152
1373450984,257.487959344,11703.998152
1373451284,220.42529852933333,11703.998152
1373451584,1773.155720028,11703.998152
1373451883,2910.3942071306665,11703.998152
1373452183,282.8466220066667,11703.998152
1373452483,647.6212310773334,11703.998152
1373452783,850.4905323786667,11703.998152
1373453083,222.375964888,11703.998152
1373453383,296.5012865173333,11703.998152
1373453683,259.4386257026667,11703.998152
1373453983,271.1426238546666,11703.998152
1373454284,493.5185887426667,11703.998152
1373454584,284.7972883653334,11703.998152
1373454884,292.5999538,11703.998152
1373455184,257.487959344,11703.998152
1373455484,224.32663124666664,11703.998152
1373455784,253.58662662666663,11703.998152
1373456084,261.3892920613333,11703.998152
1373456384,2040.3970111653327,11703.998152
1373456684,337.46528004933333,11703.998152
1373456984,253.58662662666663,11703.998152
1373457284,1829.725044429333,11703.998152
1373457584,1221.1171405253333,11703.998152
1373457884,286.747954724,11703.998152
1373458184,253.58662662666663,11703.998152
1373458484,249.68529390933327,11703.998152
1373458784,1180.1531469933334,11703.998152
1373459084,653.4732301533335,11703.998152
1373459384,265.29062477866665,11703.998152
1373459684,284.7972883653334,11703.998152
1373459984,282.8466220066667,11703.998152
1373460284,282.8466220066667,11703.998152
1373460584,333.563947332,11703.998152
1373460884,265.29062477866665,11703.998152
1373461184,308.20528466933337,11703.998152
1373461484,321.85994918,11703.998152
1373461784,234.07996304,11703.998152
1373462085,317.95861646266667,11703.998152
1373462385,390.1332717333333,11703.998152
1373462685,692.4865573266667,11703.998152
1373462985,362.823942712,11703.998152
1373463285,325.76128189733333,11703.998152
1373463585,300.4026192346667,11703.998152
1373463885,312.1066173866667,11703.998152
1373464185,349.16927820133327,11703.998152
1373464485,284.7972883653334,11703.998152
1373464785,312.1066173866667,11703.998152
1373465085,788.0692089013334,11703.998152
1373465385,341.3666127666667,11703.998152
1373465685,280.895955648,11703.998152
1373465985,327.711948256,11703.998152
1373466285,1336.206455686667,11703.998152
1373466585,608.6079039040001,11703.998152
1373466885,575.4465758066667,11703.998152
1373467185,300.4026192346667,11703.998152
1373467485,310.155951028,11703.998152
1373467785,310.155951028,11703.998152
1373468085,280.895955648,11703.998152
1373468385,308.20528466933337,11703.998152
1373468685,2925.999538,11703.998152
1373468985,3462.4327866333338,11703.998152
1373469285,3678.956752445333,11703.998152
1373469585,3095.707511204,11703.998152
1373469885,692.4865573266667,11703.998152
1373470185,273.0932902133334,11703.998152
1373470485,1490.3090980213333,11703.998152
1373470785,261.3892920613333,11703.998152
1373471085,282.8466220066667,11703.998152
1373471385,337.46528004933333,11703.998152
1373471686,292.5999538,11703.998152
1373471986,276.99462293066665,11703.998152
1373472286,957.7771821053334,11703.998152
1373472586,347.21861184266663,11703.998152
1373472886,280.895955648,11703.998152
1373473186,284.7972883653334,11703.998152
1373473486,259.4386257026667,11703.998152
1373473786,237.98129575733333,11703.998152
1373474086,907.05985678,11703.998152
1373474386,237.98129575733333,11703.998152
1373474686,232.12929668133333,11703.998152
1373474986,280.895955648,11703.998152
1373475286,247.73462755066663,11703.998152
1373475586,257.487959344,11703.998152
1373475886,1306.946460306667,11703.998152
1373476186,237.98129575733333,11703.998152
1373476486,234.07996304,11703.998152
1373476786,218.47463217066667,11703.998152
1373477086,271.1426238546666,11703.998152
1373477386,247.73462755066663,11703.998152
1373477686,3162.0301673986664,11703.998152
1373477986,1377.1704492186668,11703.998152
1373478286,321.85994918,11703.998152
1373478586,360.87327635333327,11703.998152
1373478886,265.29062477866665,11703.998152
1373479186,255.53729298533332,11703.998152
1373479486,1509.815761608,11703.998152
1373479787,1490.3090980213333,11703.998152
1373480087,909.0105231386666,11703.998152
1373480387,813.427871564,11703.998152
1373480687,815.3785379226666,11703.998152
1373480987,981.1851784093332,11703.998152
1373481287,2143.7823281746664,11703.998152
1373481587,1225.0184732426667,11703.998152
1373481887,327.711948256,11703.998152
1373482187,257.487959344,11703.998152
1373482487,251.635960268,11703.998152
1373482787,236.0306293986667,11703.998152
1373483087,1599.5464141066668,11703.998152
1373483387,684.6838918919999,11703.998152
1373483687,288.6986210826667,11703.998152
1373483987,245.783961192,11703.998152
1373484287,259.4386257026667,11703.998152
1373484587,292.5999538,11703.998152
1373484887,2247.167645184,11703.998152
1373485187,776.3652107493333,11703.998152
1373485487,704.1905554786666,11703.998152
1373485787,253.58662662666663,11703.998152
1373486087,339.415946408,11703.998152
1373486387,655.4238965119999,11703.998152
1373486687,2338.8489640413336,11703.998152
1373486987,909.0105231386666,11703.998152
1373487287,883.651860476,11703.998152
1373487587,844.6385333026666,11703.998152
1373487887,1094.323827212,11703.998152
1373488187,1447.394438130667,11703.998152
1373488487,2100.867668284,11703.998152
1373488787,2042.347677524,11703.998152
1373489087,1234.7718050360002,11703.998152
1373489387,846.5891996613334,11703.998152
1373489687,770.5132116733334,11703.998152
1373489987,577.3972421653334,11703.998152
1373490287,1755.5997228,11703.998152
1373490587,782.2172098253334,11703.998152
1373490887,364.7746090706667,11703.998152
1373491187,788.0692089013334,11703.998152
1373491487,868.0465296066666,11703.998152
1373491787,848.5398660200001,11703.998152
1373492087,1615.151744976,11703.998152
1373492387,737.351883576,11703.998152
1373492687,840.7372005853333,11703.998152
1373492987,509.123919612,11703.998152
1373493287,992.8891765613334,11703.998152
1373493587,971.431846616,11703.998152
1373493887,1580.03975052,11703.998152
1373494187,1123.583822592,11703.998152
1373494487,1067.0144981906667,11703.998152
1373494787,1478.6050998693331,11703.998152
1373495088,996.7905092786666,11703.998152
1373495388,809.5265388466667,11703.998152
1373495688,1070.915830908,11703.998152
1373495988,805.6252061293334,11703.998152
1373496288,807.5758724880001,11703.998152
1373496588,493.5185887426667,11703.998152
1373496888,825.131869716,11703.998152
1373497188,565.6932440133334,11703.998152
1373497488,1593.694415030667,11703.998152
1373497788,1086.5211617773334,11703.998152
1373498088,1320.6011248173336,11703.998152
1373498388,717.8452199893334,11703.998152
1373498688,563.7425776546667,11703.998152
1373498988,587.1505739586667,11703.998152
1373499288,1098.2251599293334,11703.998152
1373499588,557.8905785786667,11703.998152
1373499888,548.1372467853333,11703.998152
1373500188,676.8812264573334,11703.998152
1373500488,854.391865096,11703.998152
1373500788,485.7159233080001,11703.998152
1373501088,2676.3142440906663,11703.998152
1373501388,1154.7944843306668,11703.998152
1373501688,1379.1211155773333,11703.998152
1373501988,1558.582420574667,11703.998152
1373502288,1626.855743128,11703.998152
1373502588,1964.321023177333,11703.998152
1373502888,2174.992989913333,11703.998152
1373503188,1591.743748672,11703.998152
1373503488,1905.801032417333,11703.998152
1373503788,1784.8597181799998,11703.998152
1373504088,1648.313073073333,11703.998152
1373504388,1047.507834604,11703.998152
1373504688,1377.1704492186668,11703.998152
1373504988,1096.274493570667,11703.998152
1373505288,579.347908524,11703.998152
1373505588,799.7732070533334,11703.998152
1373505889,433.04793162400006,11703.998152
1373506189,376.4786072226667,11703.998152
1373506489,606.6572375453334,11703.998152
1373506789,298.451952876,11703.998152
1373507089,563.7425776546667,11703.998152
1373507389,409.63993532,11703.998152
1373507689,403.787936244,11703.998152
1373507989,278.94528928933335,11703.998152
1373508289,1546.8784224226663,11703.998152
1373508589,815.3785379226666,11703.998152
1373508889,667.127894664,11703.998152
1373509189,1283.5384640026668,11703.998152
1373509489,770.5132116733334,11703.998152
1373509789,910.9611894973334,11703.998152
1373510089,942.171851236,11703.998152
1373510389,932.4185194426666,11703.998152
1373510689,448.6532624933333,11703.998152
1373510989,635.9172329253333,11703.998152
1373511289,807.5758724880001,11703.998152
1373511589,907.05985678,11703.998152
1373511889,1517.6184270426666,11703.998152
1373512189,2028.6930130133333,11703.998152
1373512489,1880.4423697546663,11703.998152
1373512789,2332.996964965333,11703.998152
1373513089,1591.743748672,11703.998152
1373513389,390.1332717333333,11703.998152
1373513690,1447.394438130667,11703.998152
1373513990,739.3025499346666,11703.998152
1373514290,265.29062477866665,11703.998152
1373514590,302.35328559333334,11703.998152
1373514890,275.043956572,11703.998152
1373515190,275.043956572,11703.998152
1373515490,251.635960268,11703.998152
1373515790,237.98129575733333,11703.998152
1373516090,372.5772745053333,11703.998152
1373516390,269.191957496,11703.998152
1373516690,298.451952876,11703.998152
1373516990,253.58662662666663,11703.998152
1373517290,468.15992608,11703.998152
1373517590,356.971943636,11703.998152
1373517890,294.5506201586667,11703.998152
1373518190,245.783961192,11703.998152
1373518490,278.94528928933335,11703.998152
1373518790,249.68529390933327,11703.998152
1373519090,296.5012865173333,11703.998152
1373519390,232.12929668133333,11703.998152
1373519690,269.191957496,11703.998152
1373519990,294.5506201586667,11703.998152
1373520290,241.88262847466663,11703.998152
1373520590,300.4026192346667,11703.998152
1373520890,306.2546183106667,11703.998152
1373521190,267.2412911373333,11703.998152
1373521490,308.20528466933337,11703.998152
1373521790,286.747954724,11703.998152
1373522090,224.32663124666664,11703.998152
1373522390,288.6986210826667,11703.998152
1373522690,294.5506201586667,11703.998152
1373522990,294.5506201586667,11703.998152
1373523290,298.451952876,11703.998152
1373523590,317.95861646266667,11703.998152
1373523890,310.155951028,11703.998152
1373524190,304.30395195200003,11703.998152
1373524490,288.6986210826667,11703.998152
1373524790,276.99462293066665,11703.998152
1373525090,292.5999538,11703.998152
1373525390,284.7972883653334,11703.998152
1373525690,304.30395195200003,11703.998152
1373525991,317.95861646266667,11703.998152
1373526291,308.20528466933337,11703.998152
1373526591,271.1426238546666,11703.998152
1373526891,319.9092828213333,11703.998152
1373527191,304.30395195200003,11703.998152
1373527491,312.1066173866667,11703.998152
1373527791,351.11994456,11703.998152
1373528091,278.94528928933335,11703.998152
1373528391,290.64928744133334,11703.998152
1373528691,288.6986210826667,11703.998152
1373528991,325.76128189733333,11703.998152
1373529291,302.35328559333334,11703.998152
1373529591,280.895955648,11703.998152
1373529891,854.391865096,11703.998152
1373530191,271.1426238546666,11703.998152
1373530491,239.931962116,11703.998152
1373530791,290.64928744133334,11703.998152
1373531091,323.8106155386667,11703.998152
1373531391,376.4786072226667,11703.998152
1373531691,331.6132809733333,11703.998152
1373531991,325.76128189733333,11703.998152
1373532291,282.8466220066667,11703.998152
1373532591,253.58662662666663,11703.998152
1373532891,300.4026192346667,11703.998152
1373533191,267.2412911373333,11703.998152
1373533491,329.66261461466667,11703.998152
1373533792,364.7746090706667,11703.998152
1373534092,321.85994918,11703.998152
1373534392,438.8999307,11703.998152
1373534692,3577.522101794667,11703.998152
1373534992,282.8466220066667,11703.998152
1373535292,230.17863032266663,11703.998152
1373535592,355.0212772773333,11703.998152
1373535892,581.2985748826667,11703.998152
1373536192,614.45990298,11703.998152
1373536492,300.4026192346667,11703.998152
1373536792,331.6132809733333,11703.998152
1373537092,284.7972883653334,11703.998152
1373537392,292.5999538,11703.998152
1373537692,275.043956572,11703.998152
1373537992,292.5999538,11703.998152
1373538292,292.5999538,11703.998152
1373538592,267.2412911373333,11703.998152
1373538892,269.191957496,11703.998152
1373539192,267.2412911373333,11703.998152
1373539492,269.191957496,11703.998152
1373539792,302.35328559333334,11703.998152
1373540092,249.68529390933327,11703.998152
1373540392,276.99462293066665,11703.998152
1373540692,610.5585702626666,11703.998152
1373540992,304.30395195200003,11703.998152
1373541292,314.0572837453333,11703.998152
1373541593,319.9092828213333,11703.998152
1373541893,275.043956572,11703.998152
1373542193,300.4026192346667,11703.998152
1373542493,253.58662662666663,11703.998152
1373542793,310.155951028,11703.998152
1373543093,335.5146136906667,11703.998152
1373543393,308.20528466933337,11703.998152
1373543693,325.76128189733333,11703.998152
1373543993,312.1066173866667,11703.998152
1373544293,343.3172791253333,11703.998152
1373544593,312.1066173866667,11703.998152
1373544893,477.9132578733333,11703.998152
1373545193,1123.583822592,11703.998152
1373545493,700.2892227613333,11703.998152
1373545793,271.1426238546666,11703.998152
1373546093,253.58662662666663,11703.998152
1373546393,263.33995842,11703.998152
1373546693,290.64928744133334,11703.998152
1373546993,253.58662662666663,11703.998152
1373547293,292.5999538,11703.998152
1373547593,292.5999538,11703.998152
1373547893,251.635960268,11703.998152
1373548193,310.155951028,11703.998152
1373548493,265.29062477866665,11703.998152
1373548793,265.29062477866665,11703.998152
1373549093,612.5092366213333,11703.998152
1373549393,284.7972883653334,11703.998152
1373549693,261.3892920613333,11703.998152
1373549993,269.191957496,11703.998152
1373550293,271.1426238546666,11703.998152
1373550593,300.4026192346667,11703.998152
1373550893,286.747954724,11703.998152
1373551193,263.33995842,11703.998152
1373551493,862.1945305306667,11703.998152
1373551793,282.8466220066667,11703.998152
1373552093,296.5012865173333,11703.998152
1373552394,280.895955648,11703.998152
1373552694,1191.857145145333,11703.998152
1373552994,341.3666127666667,11703.998152
1373553294,854.391865096,11703.998152
1373553594,273.0932902133334,11703.998152
1373553894,317.95861646266667,11703.998152
1373554194,302.35328559333334,11703.998152
1373554494,280.895955648,11703.998152
1373554794,323.8106155386667,11703.998152
1373555094,2543.6689317013333,11703.998152
1373555394,278.94528928933335,11703.998152
1373555694,230.17863032266663,11703.998152
1373555994,275.043956572,11703.998152
1373556294,239.931962116,11703.998152
1373556594,292.5999538,11703.998152
1373556894,1632.707742204,11703.998152
1373557194,263.33995842,11703.998152
1373557494,300.4026192346667,11703.998152
1373557794,316.00795010400003,11703.998152
1373558094,302.35328559333334,11703.998152
1373558394,294.5506201586667,11703.998152
1373558694,1039.7051691693332,11703.998152
1373558995,392.083938092,11703.998152
1373559295,308.20528466933337,11703.998152
1373559595,245.783961192,11703.998152
1373559895,292.5999538,11703.998152
1373560195,327.711948256,11703.998152
1373560495,910.9611894973334,11703.998152
1373560795,257.487959344,11703.998152
1373561095,335.5146136906667,11703.998152
1373561395,296.5012865173333,11703.998152
1373561695,302.35328559333334,11703.998152
1373561995,300.4026192346667,11703.998152
1373562295,1459.0984362826669,11703.998152
1373562595,253.58662662666663,11703.998152
1373562895,290.64928744133334,11703.998152
1373563195,288.6986210826667,11703.998152
1373563495,317.95861646266667,11703.998152
1373563795,294.5506201586667,11703.998152
1373564095,3087.904845769334,11703.998152
1373564395,2656.8075805040003,11703.998152
1373564695,366.72527542933335,11703.998152
1373564995,265.29062477866665,11703.998152
1373565295,288.6986210826667,11703.998152
1373565595,282.8466220066667,11703.998152
1373565896,1677.573068453333,11703.998152
1373566196,1502.0130961733332,11703.998152
1373566496,881.7011941173333,11703.998152
1373566796,704.1905554786666,11703.998152
1373567096,998.7411756373334,11703.998152
1373567396,1123.583822592,11703.998152
1373567696,2448.0862801266667,11703.998152
1373567996,1363.5157847080002,11703.998152
1373568296,409.63993532,11703.998152
1373568596,280.895955648,11703.998152
1373568896,263.33995842,11703.998152
1373569196,353.0706109186667,11703.998152
1373569496,1564.4344196506668,11703.998152
1373569796,321.85994918,11703.998152
1373570096,286.747954724,11703.998152
1373570396,304.30395195200003,11703.998152
1373570696,290.64928744133334,11703.998152
1373570996,411.5906016786667,11703.998152
1373571296,1160.646483406667,11703.998152
1373571596,276.99462293066665,11703.998152
1373571896,284.7972883653334,11703.998152
1373572196,294.5506201586667,11703.998152
1373572496,273.0932902133334,11703.998152
1373572796,360.87327635333327,11703.998152
1373573096,2919.72953899,11703.998152
1373573396,1137.2384871026668,11703.998152
1373573696,842.687866944,11703.998152
1373573996,834.8852015093335,11703.998152
1373574296,1427.887774544,11703.998152
1373574596,2093.0650028493333,11703.998152
1373574896,2959.43953272,11703.998152
1373575196,1944.8143595906668,11703.998152
1373575497,643.71989836,11703.998152
1373575797,674.9305600986667,11703.998152
1373576097,1247.7298029900005,11703.998152
1373576397,764.93987922,11703.998152
1373576697,2067.00967363,11703.998152
1373576997,842.26986701,11703.998152
1373577297,881.97986074,11703.998152
1373577597,380.37993994,11703.998152
1373577897,778.315877108,11703.998152
1373578197,835.999868,11703.998152
1373578497,3517.46944461,11703.998152
1373578797,754.4898808699999,11703.998152
1373579097,714.7798871399999,11703.998152
1373579397,649.571897436,11703.998152
1373579697,676.8812264573334,11703.998152
1373579997,645.6705647186667,11703.998152
1373580297,1209.4131423733334,11703.998152
1373580597,662.52989539,11703.998152
1373580897,1028.0011710173335,11703.998152
1373581197,762.7105462386667,11703.998152
1373581497,557.8905785786667,11703.998152
1373581797,305.13995182,11703.998152
1373582097,944.1225175946668,11703.998152
1373582397,380.37993994,11703.998152
1373582697,706.1412218373334,11703.998152
1373582997,901.207857704,11703.998152
1373583297,735.4012172173335,11703.998152
1373583597,795.871874336,11703.998152
1373583897,2953.3088670213333,11703.998152
1373584197,614.45990298,11703.998152
1373584497,548.1372467853333,11703.998152
1373584797,458.4065942866668,11703.998152
1373585097,772.4638780319999,11703.998152
1373585397,987.0371774853334,11703.998152
1373585697,1252.327802264,11703.998152
1373585997,2028.6930130133333,11703.998152
1373586297,774.4145443906666,11703.998152
1373586597,364.7746090706667,11703.998152
1373586897,444.751929776,11703.998152
1373587197,431.09726526533336,11703.998152
1373587497,3189.33949642,11703.998152
1373587797,2116.472999153333,11703.998152
1373588097,1154.7944843306668,11703.998152
1373588397,1107.9784917226666,11703.998152
1373588697,456.455927928,11703.998152
1373588997,957.7771821053334,11703.998152
1373589297,821.2305369986666,11703.998152
1373589597,1002.6425083546668,11703.998152
1373589897,1107.9784917226666,11703.998152
1373590198,1314.749125741333,11703.998152
1373590498,1714.635729268,11703.998152
1373590798,1067.0144981906667,11703.998152
1373591098,1244.5251368293334,11703.998152
1373591398,1115.7811571573334,11703.998152
1373591698,897.3065249866667,11703.998152
1373591998,932.4185194426666,11703.998152
1373592298,889.5038595519999,11703.998152
1373592598,856.3425314546666,11703.998152
1373592898,1283.5384640026668,11703.998152
1373593198,1016.2971728653334,11703.998152
1373593498,1217.215807808,11703.998152
1373593798,1297.1931285133332,11703.998152
1373594098,1835.5770435053328,11703.998152
1373594398,1890.195701548,11703.998152
1373594698,2943.555535228,11703.998152
1373594998,1693.1783993226668,11703.998152
1373595298,1566.3850860093332,11703.998152
1373595598,2494.902272734667,11703.998152
1373595898,2660.7089132213337,11703.998152
1373596198,2777.748894741333,11703.998152
1373596498,2169.140990837333,11703.998152
1373596798,1394.726446446667,11703.998152
1373597098,1558.582420574667,11703.998152
1373597398,2149.6343272506665,11703.998152
1373597698,676.8812264573334,11703.998152
1373597998,294.5506201586667,11703.998152
1373598298,1022.1491719413336,11703.998152
1373598598,1699.0303983986669,11703.998152
1373598898,953.875849388,11703.998152
1373599199,1730.2410601373333,11703.998152
1373599499,1459.0984362826669,11703.998152
1373599799,284.7972883653334,11703.998152
1373600099,1492.2597643800002,11703.998152
1373600399,479.863924232,11703.998152
1373600699,497.41992146000007,11703.998152
1373600999,1373.2691165013332,11703.998152
1373601299,1609.2997459,11703.998152
1373601599,1903.8503660586664,11703.998152
1373601899,1654.1650721493334,11703.998152
1373602199,1607.3490795413331,11703.998152
1373602499,1472.753100793333,11703.998152
1373602799,2015.0383485026668,11703.998152
1373603099,2046.2490102413333,11703.998152
1373603399,1650.263739432,11703.998152
1373603699,1328.403790252,11703.998152
1373603999,349.16927820133327,11703.998152
1373604299,431.09726526533336,11703.998152
1373604599,312.1066173866667,11703.998152
1373604899,321.85994918,11703.998152
1373605199,273.0932902133334,11703.998152
1373605499,314.0572837453333,11703.998152
1373605799,259.4386257026667,11703.998152
1373606099,290.64928744133334,11703.998152
1373606399,341.3666127666667,11703.998152
1373606700,269.191957496,11703.998152
1373607000,280.895955648,11703.998152
1373607300,273.0932902133334,11703.998152
1373607600,261.3892920613333,11703.998152
1373607900,292.5999538,11703.998152
1373608200,257.487959344,11703.998152
1373608500,273.0932902133334,11703.998152
1373608800,288.6986210826667,11703.998152
1373609100,275.043956572,11703.998152
1373609400,308.20528466933337,11703.998152
1373609700,292.5999538,11703.998152
1373610000,284.7972883653334,11703.998152
1373610300,310.155951028,11703.998152
1373610600,325.76128189733333,11703.998152
1373610900,275.043956572,11703.998152
1373611200,245.783961192,11703.998152
1373611500,331.6132809733333,11703.998152
1373611800,335.5146136906667,11703.998152
1373612100,276.99462293066665,11703.998152
1373612400,265.29062477866665,11703.998152
1373612700,302.35328559333334,11703.998152
1373613000,267.2412911373333,11703.998152
1373613300,276.99462293066665,11703.998152
1373613600,259.4386257026667,11703.998152
1373613900,286.747954724,11703.998152
1373614200,317.95861646266667,11703.998152
1373614500,292.5999538,11703.998152
1373614801,323.8106155386667,11703.998152
1373615101,314.0572837453333,11703.998152
1373615401,300.4026192346667,11703.998152
1373615700,253.58662662666663,11703.998152
1373616001,267.2412911373333,11703.998152
1373616301,852.4411987373335,11703.998152
1373616601,261.3892920613333,11703.998152
1373616901,251.635960268,11703.998152
1373617201,271.1426238546666,11703.998152
1373617501,275.043956572,11703.998152
1373617801,273.0932902133334,11703.998152
1373618101,271.1426238546666,11703.998152
1373618401,310.155951028,11703.998152
1373618701,306.2546183106667,11703.998152
1373619001,317.95861646266667,11703.998152
1373619301,298.451952876,11703.998152
1373619601,278.94528928933335,11703.998152
1373619901,339.415946408,11703.998152
1373620201,719.7958863480001,11703.998152
1373620501,253.58662662666663,11703.998152
1373620801,276.99462293066665,11703.998152
1373621101,3932.543379072,11703.998152
1373621401,226.27729760533333,11703.998152
1373621701,300.4026192346667,11703.998152
1373622001,286.747954724,11703.998152
1373622301,479.863924232,11703.998152
1373622601,454.5052615693333,11703.998152
1373622901,208.72130037733336,11703.998152
1373623201,236.0306293986667,11703.998152
1373623501,261.3892920613333,11703.998152
1373623801,282.8466220066667,11703.998152
1373624101,243.83329483333333,11703.998152
1373624401,275.043956572,11703.998152
1373624701,241.88262847466663,11703.998152
1373625001,278.94528928933335,11703.998152
1373625301,249.68529390933327,11703.998152
1373625601,257.487959344,11703.998152
1373625901,259.4386257026667,11703.998152
1373626201,214.57329945333333,11703.998152
1373626502,237.98129575733333,11703.998152
1373626802,312.1066173866667,11703.998152
1373627102,520.8279177640001,11703.998152
1373627402,239.931962116,11703.998152
1373627702,308.20528466933337,11703.998152
1373628002,271.1426238546666,11703.998152
1373628302,261.3892920613333,11703.998152
1373628602,261.3892920613333,11703.998152
1373628902,353.0706109186667,11703.998152
1373629202,333.563947332,11703.998152
1373629502,370.6266081466667,11703.998152
1373629802,335.5146136906667,11703.998152
1373630102,341.3666127666667,11703.998152
1373630402,331.6132809733333,11703.998152
1373630702,364.7746090706667,11703.998152
1373631002,349.16927820133327,11703.998152
1373631302,304.30395195200003,11703.998152
1373631602,953.875849388,11703.998152
1373631902,665.1772283053334,11703.998152
1373632202,273.0932902133334,11703.998152
1373632502,257.487959344,11703.998152
1373632802,292.5999538,11703.998152
1373633102,288.6986210826667,11703.998152
1373633402,317.95861646266667,11703.998152
1373633702,345.267945484,11703.998152
1373634002,292.5999538,11703.998152
1373634302,294.5506201586667,11703.998152
1373634602,300.4026192346667,11703.998152
1373634902,317.95861646266667,11703.998152
1373635202,351.11994456,11703.998152
1373635502,456.455927928,11703.998152
1373635802,358.9226099946667,11703.998152
1373636102,325.76128189733333,11703.998152
1373636402,308.20528466933337,11703.998152
1373636702,267.2412911373333,11703.998152
1373637002,331.6132809733333,11703.998152
1373637302,317.95861646266667,11703.998152
1373637602,351.11994456,11703.998152
1373637902,829.0332024333334,11703.998152
1373638202,314.0572837453333,11703.998152
1373638502,247.73462755066663,11703.998152
1373638802,300.4026192346667,11703.998152
1373639102,294.5506201586667,11703.998152
1373639402,298.451952876,11703.998152
1373639702,555.93991222,11703.998152
1373640003,284.7972883653334,11703.998152
1373640303,612.5092366213333,11703.998152
1373640603,1063.1131654733333,11703.998152
1373640903,1332.3051229693333,11703.998152
1373641203,339.415946408,11703.998152
1373641503,2338.8489640413336,11703.998152
1373641803,187.26397043200004,11703.998152
1373642103,224.32663124666664,11703.998152
1373642403,280.895955648,11703.998152
1373642703,232.12929668133333,11703.998152
1373643003,247.73462755066663,11703.998152
1373643303,1287.43979672,11703.998152
1373643603,224.32663124666664,11703.998152
1373643903,200.91863494266664,11703.998152
1373644203,202.8693013013333,11703.998152
1373644503,212.62263309466667,11703.998152
1373644803,156.05330869333335,11703.998152
1373645103,805.6252061293334,11703.998152
1373645403,298.451952876,11703.998152
1373645703,212.62263309466667,11703.998152
1373646003,224.32663124666664,11703.998152
1373646303,259.4386257026667,11703.998152
1373646603,237.98129575733333,11703.998152
1373646903,741.2532162933334,11703.998152
1373647204,234.07996304,11703.998152
1373647504,286.747954724,11703.998152
1373647804,200.91863494266664,11703.998152
1373648104,243.83329483333333,11703.998152
1373648404,230.17863032266663,11703.998152
1373648704,1184.0544797106668,11703.998152
1373649004,230.17863032266663,11703.998152
1373649304,243.83329483333333,11703.998152
1373649604,249.68529390933327,11703.998152
1373649904,241.88262847466663,11703.998152
1373650204,269.191957496,11703.998152
1373650504,3082.052846693334,11703.998152
1373650804,1878.491703396,11703.998152
1373651104,236.0306293986667,11703.998152
1373651404,236.0306293986667,11703.998152
1373651704,228.227963964,11703.998152
1373652004,224.32663124666664,11703.998152
1373652304,1897.9983669826668,11703.998152
1373652604,2022.8410139373327,11703.998152
1373652904,2313.4903013786666,11703.998152
1373653204,2093.0650028493333,11703.998152
1373653504,2139.880995457333,11703.998152
1373653804,3725.772745053334,11703.998152
1373654104,3240.0568217453333,11703.998152
1373654404,1550.77975514,11703.998152
1373654704,1718.5370619853334,11703.998152
1373655004,1447.394438130667,11703.998152
1373655304,1092.3731608533335,11703.998152
1373655604,1734.142392854667,11703.998152
1373655904,1527.3717588360005,11703.998152
1373656204,850.4905323786667,11703.998152
1373656504,1541.026423346667,11703.998152
1373656804,228.227963964,11703.998152
1373657105,198.967968584,11703.998152
1373657405,202.8693013013333,11703.998152
1373657705,981.1851784093332,11703.998152
1373658005,267.2412911373333,11703.998152
1373658305,253.58662662666663,11703.998152
1373658605,265.29062477866665,11703.998152
1373658905,247.73462755066663,11703.998152
1373659205,253.58662662666663,11703.998152
1373659505,2647.0542487106663,11703.998152
1373659805,955.8265157466666,11703.998152
1373660105,801.723873412,11703.998152
1373660405,1031.9025037346669,11703.998152
1373660705,961.6785148226668,11703.998152
1373661005,2135.97966274,11703.998152
1373661305,2143.7823281746664,11703.998152
1373661605,1418.1344427506667,11703.998152
1373661905,832.9345351506666,11703.998152
1373662205,790.0198752599999,11703.998152
1373662505,903.1585240626664,11703.998152
1373662805,731.4998845,11703.998152
1373663105,1420.0851091093334,11703.998152
1373663405,676.8812264573334,11703.998152
1373663705,616.4105693386667,11703.998152
1373664005,782.2172098253334,11703.998152
1373664305,949.9745166706668,11703.998152
1373664605,518.8772514053334,11703.998152
1373664905,1507.8650952493333,11703.998152
1373665205,739.3025499346666,11703.998152
1373665505,713.943887272,11703.998152
1373665805,1679.523734812,11703.998152
1373666106,1384.9731146533334,11703.998152
1373666406,294.5506201586667,11703.998152
1373666706,912.911855856,11703.998152
1373667006,614.45990298,11703.998152
1373667306,942.171851236,11703.998152
1373667606,778.315877108,11703.998152
1373667906,243.83329483333333,11703.998152
1373668206,302.35328559333334,11703.998152
1373668506,571.5452430893333,11703.998152
1373668806,526.67991684,11703.998152
1373669106,951.9251830293332,11703.998152
1373669406,930.467853084,11703.998152
1373669706,1671.7210693773334,11703.998152
1373670006,844.6385333026666,11703.998152
1373670306,1148.9424852546667,11703.998152
1373670606,276.99462293066665,11703.998152
1373670906,241.88262847466663,11703.998152
1373671206,253.58662662666663,11703.998152
1373671506,454.5052615693333,11703.998152
1373671806,606.6572375453334,11703.998152
1373672106,1180.1531469933334,11703.998152
1373672406,2286.1809723573333,11703.998152
1373672706,1929.2090287213337,11703.998152
1373673006,360.87327635333327,11703.998152
1373673306,754.907880804,11703.998152
1373673606,495.4692551013333,11703.998152
1373673906,1808.267714484,11703.998152
1373674206,454.5052615693333,11703.998152
1373674506,534.4825822746666,11703.998152
1373674806,335.5146136906667,11703.998152
1373675106,427.195932548,11703.998152
1373675406,817.3292042813333,11703.998152
1373675706,778.315877108,11703.998152
1373676006,641.7692320013334,11703.998152
1373676306,1008.4945074306668,11703.998152
1373676606,1098.2251599293334,11703.998152
1373676906,778.315877108,11703.998152
1373677207,1020.1985055826668,11703.998152
1373677507,1429.838440902667,11703.998152
1373677807,920.7145212906668,11703.998152
1373678107,518.8772514053334,11703.998152
1373678407,241.88262847466663,11703.998152
1373678707,493.5185887426667,11703.998152
1373679007,905.1091904213332,11703.998152
1373679307,1037.7545028106667,11703.998152
1373679607,713.943887272,11703.998152
1373679907,1020.1985055826668,11703.998152
1373680207,454.5052615693333,11703.998152
1373680507,265.29062477866665,11703.998152
1373680807,370.6266081466667,11703.998152
1373681107,1008.4945074306668,11703.998152
1373681407,273.0932902133334,11703.998152
1373681707,893.4051922693334,11703.998152
1373682007,355.0212772773333,11703.998152
1373682307,269.191957496,11703.998152
1373682607,405.7386026026667,11703.998152
1373682907,893.4051922693334,11703.998152
1373683207,1154.7944843306668,11703.998152
1373683507,850.4905323786667,11703.998152
1373683807,304.30395195200003,11703.998152
1373684107,267.2412911373333,11703.998152
1373684407,191.1653031493333,11703.998152
1373684707,1004.5931747133334,11703.998152
1373685007,1673.671735736,11703.998152
1373685307,1002.6425083546668,11703.998152
1373685607,1765.3530545933331,11703.998152
1373685907,1279.6371312853332,11703.998152
1373686207,276.99462293066665,11703.998152
1373686507,1449.3451044893332,11703.998152
1373686807,239.931962116,11703.998152
1373687107,210.671966736,11703.998152
1373687407,245.783961192,11703.998152
1373687707,249.68529390933327,11703.998152
1373688007,276.99462293066665,11703.998152
1373688307,1472.753100793333,11703.998152
1373688607,2167.1903244786668,11703.998152
1373688907,1738.043725572,11703.998152
1373689207,1962.3703568186663,11703.998152
1373689507,2331.046298606667,11703.998152
1373689808,2465.642277354667,11703.998152
1373690108,2157.4369926853333,11703.998152
1373690408,2182.795655348,11703.998152
1373690708,2916.2462062066666,11703.998152
1373691008,2520.260935397333,11703.998152
1373691308,3396.1101304386666,11703.998152
1373691608,3193.240829137334,11703.998152
1373691908,1831.675710788,11703.998152
1373692208,1775.1063863866668,11703.998152
1373692508,2003.334350350667,11703.998152
1373692808,2128.1769973053333,11703.998152
1373693108,2075.509005621333,11703.998152
1373693408,1927.2583623626667,11703.998152
1373693708,1962.3703568186663,11703.998152
1373694008,1700.9810647573331,11703.998152
1373694308,1597.595747748,11703.998152
1373694608,1810.2183808426664,11703.998152
1373694908,2026.7423466546668,11703.998152
1373695208,1938.962360514667,11703.998152
1373695508,2824.5648873493337,11703.998152
1373695808,2684.116909525333,11703.998152
1373696108,2424.6782838226663,11703.998152
1373696409,1937.011694156,11703.998152
1373696709,1935.061027797333,11703.998152
1373697009,2122.324998229333,11703.998152
1373697309,1390.8251137293337,11703.998152
1373697609,1420.0851091093334,11703.998152
1373697909,1823.8730453533333,11703.998152
1373698209,1388.8744473706663,11703.998152
1373698509,949.9745166706668,11703.998152
1373698809,754.907880804,11703.998152
1373699109,2912.3448734893336,11703.998152
1373699409,2767.995562948,11703.998152
1373699709,2783.600893817333,11703.998152
1373700009,3538.508774621333,11703.998152
1373700309,3519.002111034667,11703.998152
1373700609,3739.427409564,11703.998152
1373700909,3136.6715047360003,11703.998152
1373701209,3840.8620602146666,11703.998152
1373701509,3522.9034437520004,11703.998152
1373701809,3499.495447448,11703.998152
1373702109,3245.9088208213334,11703.998152
1373702409,3481.93945022,11703.998152
1373702709,3433.1727912533333,11703.998152
1373703009,3522.9034437520004,11703.998152
1373703309,1858.985039809333,11703.998152
1373703609,3132.7701720186665,11703.998152
1373703909,1812.169047201333,11703.998152
1373704209,1802.415715408,11703.998152
1373704509,1445.443771772,11703.998152
1373704809,1743.895724648,11703.998152
1373705109,1847.2810416573327,11703.998152
1373705409,2034.545012089333,11703.998152
1373705709,1734.142392854667,11703.998152
1373706009,1685.375733888,11703.998152
1373706309,2356.4049612693334,11703.998152
1373706609,2910.3942071306665,11703.998152
1373706909,2022.8410139373327,11703.998152
1373707209,1675.622402094667,11703.998152
1373707509,2984.5195287600004,11703.998152
1373707809,2032.5943457306669,11703.998152
1373708110,1880.4423697546663,11703.998152
1373708410,994.83984292,11703.998152
1373708710,1160.646483406667,11703.998152
1373709010,1287.43979672,11703.998152
1373709310,1096.274493570667,11703.998152
1373709610,996.7905092786666,11703.998152
1373709910,1710.7343965506668,11703.998152
1373710210,811.4772052053333,11703.998152
1373710510,1107.9784917226666,11703.998152
1373710810,948.023850312,11703.998152
1373711110,916.8131885733336,11703.998152
1373711410,1152.843817972,11703.998152
1373711710,1476.6544335106666,11703.998152
1373712010,751.0065480866666,11703.998152
1373712310,200.91863494266664,11703.998152
1373712610,360.87327635333327,11703.998152
1373712910,255.53729298533332,11703.998152
1373713210,255.53729298533332,11703.998152
1373713510,1872.63970432,11703.998152
1373713810,1228.91980596,11703.998152
1373714110,339.415946408,11703.998152
1373714410,298.451952876,11703.998152
1373714710,245.783961192,11703.998152
1373715010,647.6212310773334,11703.998152
1373715310,2996.2235269120006,11703.998152
1373715610,3343.4421387546668,11703.998152
1373715910,2929.900870717334,11703.998152
1373716210,2925.999538,11703.998152
1373716510,1823.8730453533333,11703.998152
1373716810,2615.843586972,11703.998152
1373717110,2202.302318934667,11703.998152
1373717410,953.875849388,11703.998152
1373717710,953.875849388,11703.998152
1373718010,1617.1024113346668,11703.998152
1373718311,1644.411740356,11703.998152
1373718611,930.467853084,11703.998152
1373718911,1396.677112805333,11703.998152
1373719211,288.6986210826667,11703.998152
1373719511,222.375964888,11703.998152
1373719811,230.17863032266663,11703.998152
1373720111,230.17863032266663,11703.998152
1373720411,1000.691841996,11703.998152
1373720711,2354.4542949106667,11703.998152
1373721011,1443.493105413333,11703.998152
1373721311,1254.2784686226669,11703.998152
1373721611,1092.3731608533335,11703.998152
1373721911,1133.3371543853334,11703.998152
1373722211,758.8092135213333,11703.998152
1373722511,684.6838918919999,11703.998152
1373722811,665.1772283053334,11703.998152
1373723111,873.8985286826667,11703.998152
1373723411,1031.9025037346669,11703.998152
1373723711,975.3331793333334,11703.998152
1373724011,1154.7944843306668,11703.998152
1373724311,2132.0783300226667,11703.998152
1373724611,333.563947332,11703.998152
1373724911,251.635960268,11703.998152
1373725211,249.68529390933327,11703.998152
1373725511,224.32663124666664,11703.998152
1373725811,276.99462293066665,11703.998152
1373726111,518.8772514053334,11703.998152
1373726411,241.88262847466663,11703.998152
1373726711,790.0198752599999,11703.998152
1373727011,786.1185425426665,11703.998152
1373727311,1340.1077884039998,11703.998152
1373727612,267.2412911373333,11703.998152
1373727912,2204.252985293333,11703.998152
1373728212,247.73462755066663,11703.998152
1373728512,224.32663124666664,11703.998152
1373728812,234.07996304,11703.998152
1373729112,251.635960268,11703.998152
1373729412,275.043956572,11703.998152
1373729712,1431.7891072613334,11703.998152
1373730012,195.06663586666664,11703.998152
1373730312,230.17863032266663,11703.998152
1373730612,208.72130037733336,11703.998152
1373730912,216.52396581200003,11703.998152
1373731212,241.88262847466663,11703.998152
1373731512,907.05985678,11703.998152
1373731812,228.227963964,11703.998152
1373732112,319.9092828213333,11703.998152
1373732412,255.53729298533332,11703.998152
1373732712,220.42529852933333,11703.998152
1373733012,253.58662662666663,11703.998152
1373733312,813.427871564,11703.998152
1373733612,243.83329483333333,11703.998152
1373733912,234.07996304,11703.998152
1373734212,282.8466220066667,11703.998152
1373734512,212.62263309466667,11703.998152
1373734812,222.375964888,11703.998152
1373735112,3158.128834681333,11703.998152
1373735412,3476.087451144,11703.998152
1373735712,2032.5943457306669,11703.998152
1373736012,910.9611894973334,11703.998152
1373736312,676.8812264573334,11703.998152
1373736612,622.2625684146667,11703.998152
1373736912,1644.411740356,11703.998152
1373737212,1718.5370619853334,11703.998152
1373737512,930.467853084,11703.998152
1373737812,271.1426238546666,11703.998152
1373738112,784.1678761840001,11703.998152
1373738412,1031.9025037346669,11703.998152
1373738712,905.1091904213332,11703.998152
1373739012,893.4051922693334,11703.998152
1373739312,688.5852246093334,11703.998152
1373739612,733.4505508586667,11703.998152
1373739913,567.6439103719999,11703.998152
1373740213,655.4238965119999,11703.998152
1373740513,1552.7304214986666,11703.998152
1373740813,745.1545490106666,11703.998152
1373741113,3462.4327866333338,11703.998152
1373741413,2151.584993609333,11703.998152
1373741713,2219.858316162667,11703.998152
1373742013,1113.8304907986667,11703.998152
1373742313,1977.975687688,11703.998152
1373742613,1470.802434434667,11703.998152
1373742913,1262.0811340573334,11703.998152
1373743213,2007.235683068,11703.998152
1373743513,2366.158293062667,11703.998152
1373743813,2559.2742625706665,11703.998152
1373744113,2336.898297682667,11703.998152
1373744413,1804.3663817666668,11703.998152
1373744713,1739.9943919306668,11703.998152
1373745013,1644.411740356,11703.998152
1373745313,1587.8424159546669,11703.998152
1373745613,1656.1157385079998,11703.998152
1373745913,3928.642046354666,11703.998152
1373746213,2130.127663664,11703.998152
1373746513,1792.6623836146669,11703.998152
1373746813,1882.393036113333,11703.998152
1373747113,1476.6544335106666,11703.998152
1373747414,1384.9731146533334,11703.998152
1373747714,2192.5489871413333,11703.998152
1373748014,1180.1531469933334,11703.998152
1373748314,1304.995793948,11703.998152
1373748614,1839.4783762226664,11703.998152
1373748914,2570.9782607226666,11703.998152
1373749214,2555.372929853333,11703.998152
1373749514,2038.446344806667,11703.998152
1373749814,1000.691841996,11703.998152
1373750114,470.1105924386666,11703.998152
1373750414,530.5812495573333,11703.998152
1373750714,635.9172329253333,11703.998152
1373751014,790.0198752599999,11703.998152
1373751314,1716.586395626667,11703.998152
1373751614,749.0558817280001,11703.998152
1373751914,760.7598798800001,11703.998152
1373752214,358.9226099946667,11703.998152
1373752514,788.0692089013334,11703.998152
1373752814,852.4411987373335,11703.998152
1373753114,1642.4610739973332,11703.998152
1373753414,405.7386026026667,11703.998152
1373753714,501.3212541773333,11703.998152
1373754014,635.9172329253333,11703.998152
1373754314,737.351883576,11703.998152
1373754614,809.5265388466667,11703.998152
1373754914,988.9878438439998,11703.998152
1373755214,524.7292504813333,11703.998152
1373755514,388.18260537466665,11703.998152
1373755814,669.0785610226666,11703.998152
1373756114,920.7145212906668,11703.998152
1373756415,918.763854932,11703.998152
1373756715,2093.0650028493333,11703.998152
1373757015,1862.886372526667,11703.998152
1373757315,2292.0329714333334,11703.998152
1373757615,766.611878956,11703.998152
1373757915,643.71989836,11703.998152
1373758215,752.9572144453334,11703.998152
1373758515,632.0159002080001,11703.998152
1373758815,674.9305600986667,11703.998152
1373759115,598.8545721106667,11703.998152
1373759415,760.7598798800001,11703.998152
1373759715,832.9345351506666,11703.998152
1373760015,811.4772052053333,11703.998152
1373760315,2424.6782838226663,11703.998152
1373760615,626.163901132,11703.998152
1373760915,988.9878438439998,11703.998152
1373761215,1084.5704954186665,11703.998152
1373761515,1156.7451506893333,11703.998152
1373761815,1146.991818896,11703.998152
1373762115,987.0371774853334,11703.998152
1373762415,420.0899336700001,11703.998152
1373762715,522.7785841226666,11703.998152
1373763015,819.27987064,11703.998152
1373763315,868.0465296066666,11703.998152
1373763615,832.9345351506666,11703.998152
1373763915,858.2931978133333,11703.998152
1373764215,505.2225868946667,11703.998152
1373764515,811.4772052053333,11703.998152
1373764815,875.8491950413332,11703.998152
1373765115,1925.307696004,11703.998152
1373765415,2178.894322630667,11703.998152
1373765715,1695.1290656813333,11703.998152
1373766015,1870.6890379613333,11703.998152
1373766315,2290.0823050746667,11703.998152
1373766615,1154.7944843306668,11703.998152
1373766915,752.9572144453334,11703.998152
1373767215,764.6612125973334,11703.998152
1373767515,1207.462476014667,11703.998152
1373767815,481.8145905906667,11703.998152
1373768115,507.1732532533333,11703.998152
1373768415,286.747954724,11703.998152
1373768715,427.195932548,11703.998152
1373769015,460.3572606453333,11703.998152
1373769315,591.051906676,11703.998152
1373769615,606.6572375453334,11703.998152
1373769915,462.307927004,11703.998152
1373770215,536.4332486333333,11703.998152
1373770515,503.271920536,11703.998152
1373770815,729.5492181413334,11703.998152
1373771115,1621.003744052,11703.998152
1373771415,1933.1103614386664,11703.998152
1373771715,1878.491703396,11703.998152
1373772016,1804.3663817666668,11703.998152
1373772316,1775.1063863866668,11703.998152
1373772616,2186.696988065333,11703.998152
1373772916,686.6345582506666,11703.998152
1373773216,944.67985084,11703.998152
1373773516,801.723873412,11703.998152
1373773816,526.67991684,11703.998152
1373774116,1053.35983368,11703.998152
1373774416,1118.1498234500002,11703.998152
1373774716,1178.2024806346667,11703.998152
1373775016,1569.58975217,11703.998152
1373775316,2709.475572188,11703.998152
1373775616,1135.287820744,11703.998152
1373775916,1359.6144519906668,11703.998152
1373776216,1318.650458458667,11703.998152
1373776516,1445.443771772,11703.998152
1373776816,1680.3597346800002,11703.998152
1373777116,1402.5291118813332,11703.998152
1373777416,1260.1304676986667,11703.998152
1373777716,1447.394438130667,11703.998152
1373778016,1386.923781012,11703.998152
1373778316,1310.847793024,11703.998152
1373778616,1302.06979441,11703.998152
1373778916,1404.47977824,11703.998152
1373779216,1195.7584778626667,11703.998152
1373779516,971.431846616,11703.998152
1373779817,747.1052153693335,11703.998152
1373780117,685.5198917600001,11703.998152
1373780417,1121.6331562333337,11703.998152
1373780717,1299.143794872,11703.998152
1373781017,690.535890968,11703.998152
1373781317,698.3385564026665,11703.998152
1373781617,864.1451968893334,11703.998152
1373781917,698.3385564026665,11703.998152
1373782217,555.93991222,11703.998152
1373782517,589.1012403173333,11703.998152
1373782817,649.571897436,11703.998152
1373783117,1045.5571682453333,11703.998152
1373783417,815.3785379226666,11703.998152
1373783717,1601.497080465333,11703.998152
1373784017,1119.6824898746663,11703.998152
1373784317,602.7559048280001,11703.998152
1373784617,630.0652338493334,11703.998152
1373784917,715.8945536306667,11703.998152
1373785217,460.3572606453333,11703.998152
1373785517,542.2852477093332,11703.998152
1373785817,460.3572606453333,11703.998152
1373786117,421.343933472,11703.998152
1373786418,497.41992146000007,11703.998152
1373786718,427.195932548,11703.998152
1373787018,382.3306062986667,11703.998152
1373787318,425.2452661893333,11703.998152
1373787618,374.5279408640001,11703.998152
1373787918,409.63993532,11703.998152
1373788218,696.3878900440001,11703.998152
1373788518,1769.2543873106667,11703.998152
1373788818,1710.7343965506668,11703.998152
1373789118,1326.4531238933332,11703.998152
1373789418,2165.23965812,11703.998152
1373789718,3462.4327866333338,11703.998152
1373790018,1511.766427966667,11703.998152
1373790318,1363.5157847080002,11703.998152
1373790618,1593.694415030667,11703.998152
1373790918,1790.711717256,11703.998152
1373791218,2570.9782607226666,11703.998152
1373791518,2018.93968122,11703.998152
1373791818,2229.611647956,11703.998152
1373792118,1441.5424390546668,11703.998152
1373792418,1078.7184963426666,11703.998152
1373792718,1535.1744242706668,11703.998152
1373793018,1217.215807808,11703.998152
1373793318,1256.2291349813331,11703.998152
1373793618,302.35328559333334,11703.998152
1373793918,1691.227732964,11703.998152
1373794219,1226.9691396013334,11703.998152
1373794519,275.043956572,11703.998152
1373794819,337.46528004933333,11703.998152
1373795119,530.5812495573333,11703.998152
1373795419,561.791911296,11703.998152
1373795719,259.4386257026667,11703.998152
1373796019,290.64928744133334,11703.998152
1373796319,286.747954724,11703.998152
1373796619,300.4026192346667,11703.998152
1373796919,290.64928744133334,11703.998152
1373797219,329.66261461466667,11703.998152
1373797519,308.20528466933337,11703.998152
1373797819,314.0572837453333,11703.998152
1373798119,879.7505277586667,11703.998152
1373798419,290.64928744133334,11703.998152
1373798719,275.043956572,11703.998152
1373799019,241.88262847466663,11703.998152
1373799319,257.487959344,11703.998152
1373799619,337.46528004933333,11703.998152
1373799919,1658.0664048666667,11703.998152
1373800219,2044.298343882667,11703.998152
1373800519,489.61725602533335,11703.998152
1373800819,269.191957496,11703.998152
1373801119,276.99462293066665,11703.998152
1373801419,236.0306293986667,11703.998152
1373801719,245.783961192,11703.998152
1373802019,924.615854008,11703.998152
1373802319,282.8466220066667,11703.998152
1373802619,261.3892920613333,11703.998152
1373802919,275.043956572,11703.998152
1373803219,282.8466220066667,11703.998152
1373803519,257.487959344,11703.998152
1373803819,265.29062477866665,11703.998152
1373804119,245.783961192,11703.998152
1373804419,1262.0811340573334,11703.998152
1373804719,239.931962116,11703.998152
1373805019,306.2546183106667,11703.998152
1373805319,1008.4945074306668,11703.998152
1373805619,819.27987064,11703.998152
1373805919,276.99462293066665,11703.998152
1373806219,337.46528004933333,11703.998152
1373806519,263.33995842,11703.998152
1373806819,308.20528466933337,11703.998152
1373807119,1671.7210693773334,11703.998152
1373807419,395.9852708093333,11703.998152
1373807719,366.72527542933335,11703.998152
1373808019,312.1066173866667,11703.998152
1373808320,513.0252523293333,11703.998152
1373808620,356.971943636,11703.998152
1373808920,1012.395840148,11703.998152
1373809220,288.6986210826667,11703.998152
1373809520,343.3172791253333,11703.998152
1373809820,292.5999538,11703.998152
1373810120,259.4386257026667,11703.998152
1373810420,243.83329483333333,11703.998152
1373810720,2243.266312466667,11703.998152
1373811020,3007.927525064,11703.998152
1373811320,3085.9541794106663,11703.998152
1373811620,2945.506201586666,11703.998152
1373811920,2590.4849243093336,11703.998152
1373812220,2658.7582468626665,11703.998152
1373812520,1145.0411525373331,11703.998152
1373812820,1954.567691384,11703.998152
1373813120,2791.4035592520004,11703.998152
1373813420,2758.2422311546666,11703.998152
1373813720,1396.677112805333,11703.998152
1373814020,901.207857704,11703.998152
1373814320,3659.450088858666,11703.998152
1373814620,3600.930098098667,11703.998152
1373814920,3337.5901396786667,11703.998152
1373815220,3163.9808337573336,11703.998152
1373815520,932.4185194426666,11703.998152
1373815820,1043.6065018866666,11703.998152
1373816120,1232.8211386773337,11703.998152
1373816420,247.73462755066663,11703.998152
1373816720,257.487959344,11703.998152
1373817020,267.2412911373333,11703.998152
1373817321,267.2412911373333,11703.998152
1373817621,316.00795010400003,11703.998152
1373817921,909.0105231386666,11703.998152
1373818221,236.0306293986667,11703.998152
1373818521,314.0572837453333,11703.998152
1373818821,280.895955648,11703.998152
1373819121,224.32663124666664,11703.998152
1373819421,271.1426238546666,11703.998152
1373819721,548.1372467853333,11703.998152
1373820021,308.20528466933337,11703.998152
1373820321,237.98129575733333,11703.998152
1373820621,249.68529390933327,11703.998152
1373820921,273.0932902133334,11703.998152
1373821221,271.1426238546666,11703.998152
1373821521,1314.749125741333,11703.998152
1373821821,397.935937168,11703.998152
1373822121,267.2412911373333,11703.998152
1373822421,204.81996766,11703.998152
1373822721,288.6986210826667,11703.998152
1373823021,228.227963964,11703.998152
1373823321,3195.191495496,11703.998152
1373823621,1983.827686764,11703.998152
1373823921,341.3666127666667,11703.998152
1373824221,292.5999538,11703.998152
1373824521,247.73462755066663,11703.998152
1373824821,228.227963964,11703.998152
1373825121,1490.3090980213333,11703.998152
1373825421,1488.3584316626666,11703.998152
1373825721,916.8131885733336,11703.998152
1373826021,840.7372005853333,11703.998152
1373826322,795.871874336,11703.998152
1373826622,672.97989374,11703.998152
1373826922,1970.173022253333,11703.998152
1373827222,934.3691858013334,11703.998152
1373827522,1244.5251368293334,11703.998152
1373827822,532.531915916,11703.998152
1373828122,267.2412911373333,11703.998152
1373828422,269.191957496,11703.998152
1373828722,1373.2691165013332,11703.998152
1373829022,483.76525694933326,11703.998152
1373829322,275.043956572,11703.998152
1373829622,269.191957496,11703.998152
1373829922,333.563947332,11703.998152
